title:Meital2, start timestamp:1638094773.891291, stop timestamp:1638094845.366033, headset type:EPOCX, headset serial:E20205C4, headset firmware:710, channels:67, sampling rate:eeg_128;mot_32, samples:9155      , version:2.1, 
Timestamp,EEG.Counter,EEG.Interpolated,EEG.AF3,EEG.F7,EEG.F3,EEG.FC5,EEG.T7,EEG.P7,EEG.O1,EEG.O2,EEG.P8,EEG.T8,EEG.FC6,EEG.F4,EEG.F8,EEG.AF4,EEG.RawCq,EEG.Battery,EEG.BatteryPercent,MarkerIndex,MarkerType,MarkerValueInt,EEG.MarkerHardware,CQ.AF3,CQ.F7,CQ.F3,CQ.FC5,CQ.T7,CQ.P7,CQ.O1,CQ.O2,CQ.P8,CQ.T8,CQ.FC6,CQ.F4,CQ.F8,CQ.AF4,CQ.Overall,EQ.SampleRateQuality,EQ.OVERALL,EQ.AF3,EQ.F7,EQ.F3,EQ.FC5,EQ.T7,EQ.P7,EQ.O1,EQ.O2,EQ.P8,EQ.T8,EQ.FC6,EQ.F4,EQ.F8,EQ.AF4,MOT.CounterMems,MOT.InterpolatedMems,MOT.Q0,MOT.Q1,MOT.Q2,MOT.Q3,MOT.AccX,MOT.AccY,MOT.AccZ,MOT.MagX,MOT.MagY,MOT.MagZ
1638094773.891291,0.000000,0.000000,4794.230957,4242.051270,4436.410156,4353.461426,4273.974121,4183.846191,4168.333496,4462.692383,4145.000000,4201.025879,4807.436035,4585.769043,4459.871582,4622.179688,2653.000000,4.000000,98.000000,,,,0.000000,4.000000,4.000000,4.000000,4.000000,4.000000,4.000000,4.000000,0.000000,4.000000,4.000000,4.000000,4.000000,4.000000,4.000000,66.666664,,,,,,,,,,,,,,,,,0.000000,0.000000,0.262801,0.630127,-0.289856,0.670715,0.984007,-0.063973,0.031254,-44.787621,-2.322421,-24.702219
1638094773.898999,1.000000,0.000000,4804.743652,4253.589844,4449.871582,4332.307617,4279.487305,4193.846191,4171.922852,4462.051270,4156.794922,4213.974121,4820.256348,4599.487305,4458.333496,4632.051270,1885.000000,4.000000,98.000000,,,,0.000000,4.000000,4.000000,4.000000,4.000000,4.000000,4.000000,4.000000,0.000000,4.000000,4.000000,4.000000,4.000000,4.000000,4.000000,66.666664,,,,,,,,,,,,,,,,,,,,,,,,,,,,
1638094773.906807,2.000000,0.000000,4796.153809,4242.820313,4450.384766,4319.871582,4283.077148,4195.384766,4172.307617,4462.051270,4176.282227,4207.563965,4817.436035,4587.436035,4457.692383,4621.666504,2606.000000,4.000000,98.000000,,,,0.000000,4.000000,4.000000,4.000000,4.000000,4.000000,4.000000,4.000000,0.000000,4.000000,4.000000,4.000000,4.000000,4.000000,4.000000,66.666664,,,,,,,,,,,,,,,,,,,,,,,,,,,,
1638094773.914516,3.000000,0.000000,4775.897461,4223.205078,4433.205078,4331.025879,4287.179688,4197.820313,4181.025879,4462.692383,4165.897461,4206.538574,4799.358887,4560.897461,4459.230957,4602.307617,2625.000000,4.000000,98.000000,,,,0.000000,4.000000,4.000000,4.000000,4.000000,4.000000,4.000000,4.000000,0.000000,4.000000,4.000000,4.000000,4.000000,4.000000,4.000000,66.666664,,,,,,,,,,,,,,,,,,,,,,,,,,,,
1638094773.922324,4.000000,0.000000,4783.589844,4234.102539,4431.410156,4338.333496,4281.282227,4213.846191,4191.410156,4461.282227,4156.538574,4215.384766,4804.102539,4562.179688,4457.563965,4603.077148,2075.000000,4.000000,98.000000,,,,0.000000,4.000000,4.000000,4.000000,4.000000,4.000000,4.000000,4.000000,0.000000,4.000000,4.000000,4.000000,4.000000,4.000000,4.000000,66.666664,,,,,,,,,,,,,,,,,1.000000,0.000000,0.262645,0.630127,-0.289856,0.670776,0.984984,-0.066414,0.036137,-44.875526,-2.340179,-24.615330
1638094773.930032,5.000000,0.000000,4796.538574,4243.205078,4424.102539,4338.461426,4276.922852,4212.179688,4176.666504,4462.179688,4178.589844,4211.538574,4822.051270,4569.743652,4447.179688,4601.794922,1885.000000,4.000000,98.000000,,,,0.000000,4.000000,4.000000,4.000000,4.000000,4.000000,4.000000,4.000000,0.000000,4.000000,4.000000,4.000000,4.000000,4.000000,4.000000,66.666664,,,,,,,,,,,,,,,,,,,,,,,,,,,,
1638094773.937940,6.000000,0.000000,4790.512695,4230.769043,4398.205078,4336.666504,4287.436035,4189.871582,4149.871582,4463.846191,4194.871582,4200.641113,4809.487305,4564.230957,4436.153809,4590.128418,2411.000000,4.000000,98.000000,,,,0.000000,4.000000,4.000000,4.000000,4.000000,4.000000,4.000000,4.000000,0.000000,4.000000,4.000000,4.000000,4.000000,4.000000,4.000000,66.666664,,,,,,,,,,,,,,,,,,,,,,,,,,,,
1638094773.945748,7.000000,0.000000,4790.128418,4233.077148,4397.179688,4332.436035,4294.230957,4185.897461,4150.897461,4461.922852,4194.358887,4200.897461,4797.051270,4569.871582,4442.051270,4597.948730,0.000000,4.000000,98.000000,,,,0.000000,4.000000,4.000000,4.000000,4.000000,4.000000,4.000000,4.000000,0.000000,4.000000,4.000000,4.000000,4.000000,4.000000,4.000000,66.666664,,,,,,,,,,,,,,,,,,,,,,,,,,,,
1638094773.953656,8.000000,0.000000,4810.128418,4252.563965,4426.794922,4336.153809,4294.743652,4201.410156,4174.230957,4461.410156,4205.000000,4214.871582,4817.563965,4589.102539,4464.743652,4619.230957,2179.000000,4.000000,98.000000,,,,0.000000,4.000000,4.000000,4.000000,4.000000,4.000000,4.000000,4.000000,0.000000,4.000000,4.000000,4.000000,4.000000,4.000000,4.000000,66.666664,,,,,,,,,,,,,,,,,2.000000,0.000000,0.262501,0.630066,-0.289978,0.670837,0.987425,-0.062019,0.036626,-44.854641,-2.339494,-24.687130
1638094773.961465,9.000000,0.000000,4829.743652,4262.692383,4449.487305,4344.743652,4294.487305,4199.871582,4189.487305,4462.820313,4210.897461,4231.538574,4833.205078,4603.333496,4476.794922,4629.743652,3074.000000,4.000000,98.000000,,,,0.000000,4.000000,4.000000,4.000000,4.000000,4.000000,4.000000,4.000000,0.000000,4.000000,4.000000,4.000000,4.000000,4.000000,4.000000,66.666664,,,,,,,,,,,,,,,,,,,,,,,,,,,,
1638094773.969373,10.000000,0.000000,4833.589844,4256.153809,4454.230957,4347.820313,4282.692383,4195.512695,4197.436035,4462.948730,4192.692383,4229.102539,4835.769043,4608.077148,4466.794922,4631.282227,2545.000000,4.000000,98.000000,,,,0.000000,4.000000,4.000000,4.000000,4.000000,4.000000,4.000000,4.000000,0.000000,4.000000,4.000000,4.000000,4.000000,4.000000,4.000000,66.666664,,,,,,,,,,,,,,,,,,,,,,,,,,,,
1638094773.977181,11.000000,0.000000,4823.077148,4246.282227,4447.563965,4347.307617,4277.692383,4209.871582,4206.538574,4463.461426,4171.666504,4214.487305,4832.820313,4603.589844,4458.461426,4625.384766,2641.000000,4.000000,98.000000,,,,0.000000,4.000000,4.000000,4.000000,4.000000,4.000000,4.000000,4.000000,0.000000,4.000000,4.000000,4.000000,4.000000,4.000000,4.000000,66.666664,,,,,,,,,,,,,,,,,,,,,,,,,,,,
1638094773.984989,12.000000,0.000000,4810.897461,4244.743652,4428.846191,4336.666504,4290.512695,4215.256348,4207.436035,4463.205078,4165.384766,4208.333496,4815.512695,4593.205078,4460.897461,4616.794922,2236.000000,4.000000,98.000000,,,,0.000000,4.000000,4.000000,4.000000,4.000000,4.000000,4.000000,4.000000,0.000000,4.000000,4.000000,4.000000,4.000000,4.000000,4.000000,66.666664,,,,,,,,,,,,,,,,,3.000000,0.000000,0.262254,0.630188,-0.289795,0.670898,0.975705,-0.049811,0.027835,-44.952511,-2.305545,-24.701750
1638094773.992797,13.000000,0.000000,4814.871582,4251.282227,4412.307617,4326.538574,4292.563965,4203.846191,4198.974121,4462.179688,4170.897461,4218.205078,4810.384766,4585.256348,4460.897461,4615.897461,2388.000000,4.000000,98.000000,,,,0.000000,4.000000,4.000000,4.000000,4.000000,4.000000,4.000000,4.000000,0.000000,4.000000,4.000000,4.000000,4.000000,4.000000,4.000000,66.666664,,,,,,,,,,,,,,,,,,,,,,,,,,,,
1638094774.000506,14.000000,0.000000,4812.179688,4245.000000,4401.922852,4337.692383,4280.512695,4195.769043,4181.282227,4463.205078,4165.384766,4223.333496,4832.179688,4580.641113,4457.563965,4607.563965,2545.000000,4.000000,98.000000,,,,0.000000,4.000000,4.000000,4.000000,4.000000,4.000000,4.000000,4.000000,0.000000,4.000000,4.000000,4.000000,4.000000,4.000000,4.000000,66.666664,,,,,,,,,,,,,,,,,,,,,,,,,,,,
1638094774.008314,15.000000,0.000000,4798.974121,4233.589844,4394.615234,4342.436035,4277.948730,4203.077148,4167.820313,4462.179688,4168.461426,4214.871582,4844.871582,4582.051270,4456.666504,4598.461426,2641.000000,4.000000,98.000000,,,,0.000000,4.000000,4.000000,4.000000,4.000000,4.000000,4.000000,4.000000,0.000000,4.000000,4.000000,4.000000,4.000000,4.000000,4.000000,66.666664,,,,,,,,,,,,,,,,,,,,,,,,,,,,
1638094774.016022,16.000000,0.000000,4797.051270,4236.794922,4392.307617,4319.230957,4283.077148,4202.179688,4166.794922,4460.000000,4202.820313,4210.769043,4829.230957,4582.179688,4457.563965,4602.563965,0.000000,4.000000,98.000000,,,,0.000000,4.000000,4.000000,4.000000,4.000000,4.000000,4.000000,4.000000,0.000000,4.000000,4.000000,4.000000,4.000000,4.000000,4.000000,66.666664,,,,,,,,,,,,,,,,,4.000000,0.000000,0.262040,0.630249,-0.289856,0.670898,0.981565,-0.067391,0.030277,-44.923923,-2.274990,-24.714909
1638094774.023830,17.000000,0.000000,4795.769043,4238.333496,4385.000000,4309.743652,4280.512695,4195.897461,4162.307617,4462.179688,4224.358887,4215.384766,4810.000000,4572.692383,4461.025879,4596.794922,0.000000,4.000000,98.000000,,,,0.000000,4.000000,4.000000,4.000000,4.000000,4.000000,4.000000,4.000000,0.000000,4.000000,4.000000,4.000000,4.000000,4.000000,4.000000,66.666664,,,,,,,,,,,,,,,,,,,,,,,,,,,,
1638094774.031539,18.000000,0.000000,4782.307617,4233.077148,4371.153809,4330.256348,4266.794922,4199.615234,4154.358887,4463.974121,4213.077148,4213.846191,4807.307617,4569.102539,4459.871582,4583.461426,0.000000,4.000000,98.000000,,,,0.000000,4.000000,4.000000,4.000000,4.000000,4.000000,4.000000,4.000000,0.000000,4.000000,4.000000,4.000000,4.000000,4.000000,4.000000,66.666664,,,,,,,,,,,,,,,,,,,,,,,,,,,,
1638094774.039347,19.000000,0.000000,4777.307617,4232.179688,4363.461426,4340.128418,4261.538574,4193.333496,4150.128418,4461.666504,4190.256348,4201.666504,4818.077148,4568.974121,4452.948730,4585.384766,0.000000,4.000000,98.000000,,,,0.000000,4.000000,4.000000,4.000000,4.000000,4.000000,4.000000,4.000000,0.000000,4.000000,4.000000,4.000000,4.000000,4.000000,4.000000,66.666664,,,,,,,,,,,,,,,,,,,,,,,,,,,,
1638094774.047055,20.000000,0.000000,4785.641113,4232.692383,4371.410156,4327.692383,4276.794922,4185.128418,4153.589844,4461.922852,4165.769043,4198.846191,4823.589844,4567.179688,4452.563965,4592.051270,0.000000,4.000000,98.000000,,,,0.000000,4.000000,4.000000,4.000000,4.000000,4.000000,4.000000,4.000000,0.000000,4.000000,4.000000,4.000000,4.000000,4.000000,4.000000,66.666664,,,,,,,,,,,,,,,,,5.000000,0.000000,0.261758,0.630310,-0.289978,0.670898,0.985472,-0.067391,0.038091,-45.164867,-2.147491,-24.626751
1638094774.054864,21.000000,0.000000,4782.948730,4231.153809,4379.230957,4318.846191,4282.692383,4192.436035,4168.205078,4462.051270,4144.102539,4203.974121,4818.846191,4569.487305,4454.743652,4586.794922,0.000000,4.000000,98.000000,,,,0.000000,4.000000,4.000000,4.000000,4.000000,4.000000,4.000000,4.000000,0.000000,4.000000,4.000000,4.000000,4.000000,4.000000,4.000000,66.666664,,,,,,,,,,,,,,,,,,,,,,,,,,,,
1638094774.062572,22.000000,0.000000,4779.230957,4239.871582,4374.230957,4338.589844,4277.179688,4213.717773,4193.717773,4460.641113,4144.102539,4207.307617,4828.846191,4575.256348,4464.102539,4588.333496,0.000000,4.000000,98.000000,,,,0.000000,4.000000,4.000000,4.000000,4.000000,4.000000,4.000000,4.000000,0.000000,4.000000,4.000000,4.000000,4.000000,4.000000,4.000000,66.666664,,,,,,,,,,,,,,,,,,,,,,,,,,,,
1638094774.070380,23.000000,0.000000,4780.000000,4254.743652,4366.794922,4348.717773,4284.358887,4217.307617,4205.897461,4463.205078,4144.487305,4210.512695,4831.794922,4574.230957,4470.256348,4595.897461,0.000000,4.000000,98.000000,,,,0.000000,4.000000,4.000000,4.000000,4.000000,4.000000,4.000000,4.000000,0.000000,4.000000,4.000000,4.000000,4.000000,4.000000,4.000000,66.666664,,,,,,,,,,,,,,,,,,,,,,,,,,,,
1638094774.078088,24.000000,0.000000,4764.102539,4249.230957,4363.974121,4329.230957,4287.692383,4198.589844,4193.589844,4463.974121,4130.256348,4207.820313,4807.307617,4565.769043,4456.282227,4588.846191,0.000000,4.000000,98.000000,,,,0.000000,4.000000,4.000000,4.000000,4.000000,4.000000,4.000000,4.000000,0.000000,4.000000,4.000000,4.000000,4.000000,4.000000,4.000000,66.666664,,,,,,,,,,,,,,,,,6.000000,0.000000,0.261866,0.630432,-0.290039,0.670715,0.982053,-0.074228,0.041509,-45.281712,-2.132742,-24.530743
1638094774.085897,25.000000,0.000000,4737.692383,4227.307617,4359.615234,4311.794922,4276.282227,4202.563965,4186.794922,4461.922852,4129.743652,4205.384766,4794.230957,4559.230957,4437.948730,4577.948730,0.000000,4.000000,98.000000,,,,0.000000,4.000000,4.000000,4.000000,4.000000,4.000000,4.000000,4.000000,0.000000,4.000000,4.000000,4.000000,4.000000,4.000000,4.000000,66.666664,,,,,,,,,,,,,,,,,,,,,,,,,,,,
1638094774.093605,26.000000,0.000000,4730.512695,4224.615234,4350.897461,4318.717773,4279.871582,4221.922852,4188.717773,4463.333496,4128.333496,4202.307617,4809.230957,4554.102539,4438.974121,4577.948730,0.000000,4.000000,98.000000,,,,0.000000,4.000000,4.000000,4.000000,4.000000,4.000000,4.000000,4.000000,0.000000,4.000000,4.000000,4.000000,4.000000,4.000000,4.000000,66.666664,,,,,,,,,,,,,,,,,,,,,,,,,,,,
1638094774.101513,27.000000,0.000000,4739.871582,4245.897461,4347.051270,4343.717773,4292.692383,4209.743652,4184.102539,4464.102539,4113.077148,4193.974121,4819.615234,4550.769043,4450.256348,4585.128418,0.000000,4.000000,98.000000,,,,0.000000,4.000000,4.000000,4.000000,4.000000,4.000000,4.000000,4.000000,0.000000,4.000000,4.000000,4.000000,4.000000,4.000000,4.000000,66.666664,,,,,,,,,,,,,,,,,,,,,,,,,,,,
1638094774.109321,28.000000,0.000000,4743.461426,4262.820313,4353.846191,4349.102539,4282.948730,4192.436035,4179.487305,4460.641113,4112.563965,4197.179688,4818.077148,4555.256348,4457.436035,4597.051270,0.000000,4.000000,98.000000,,,,0.000000,4.000000,4.000000,4.000000,4.000000,4.000000,4.000000,4.000000,0.000000,4.000000,4.000000,4.000000,4.000000,4.000000,4.000000,66.666664,,,,,,,,,,,,,,,,,7.000000,0.000000,0.261949,0.630676,-0.289856,0.670532,0.973263,-0.059578,0.046881,-45.220207,-2.152801,-24.644335
1638094774.117229,29.000000,0.000000,4744.102539,4271.538574,4372.436035,4342.179688,4273.846191,4208.333496,4185.256348,4461.538574,4118.974121,4212.307617,4830.769043,4575.384766,4470.128418,4623.333496,0.000000,4.000000,98.000000,,,,0.000000,4.000000,4.000000,4.000000,4.000000,4.000000,4.000000,4.000000,0.000000,4.000000,4.000000,4.000000,4.000000,4.000000,4.000000,66.666664,,,,,,,,,,,,,,,,,,,,,,,,,,,,
1638094774.125037,30.000000,0.000000,4739.743652,4285.256348,4384.358887,4351.410156,4288.205078,4213.589844,4189.871582,4465.512695,4109.743652,4210.128418,4845.897461,4596.794922,4477.692383,4647.563965,0.000000,4.000000,98.000000,,,,0.000000,4.000000,4.000000,4.000000,4.000000,4.000000,4.000000,4.000000,0.000000,4.000000,4.000000,4.000000,4.000000,4.000000,4.000000,66.666664,,,,,,,,,,,,,,,,,,,,,,,,,,,,
1638094774.132946,31.000000,0.000000,4717.179688,4284.102539,4376.666504,4343.846191,4292.307617,4196.282227,4179.102539,4463.461426,4108.077148,4193.333496,4840.000000,4596.794922,4467.563965,4647.692383,0.000000,4.000000,98.000000,,,,0.000000,4.000000,4.000000,4.000000,4.000000,4.000000,4.000000,4.000000,0.000000,4.000000,4.000000,4.000000,4.000000,4.000000,4.000000,66.666664,,,,,,,,,,,,,,,,,,,,,,,,,,,,
1638094774.140754,32.000000,0.000000,4693.077148,4266.153809,4371.282227,4316.538574,4275.641113,4198.974121,4172.820313,4460.256348,4116.282227,4187.692383,4829.102539,4586.666504,4458.077148,4636.282227,0.000000,4.000000,98.000000,,,,0.000000,4.000000,4.000000,4.000000,4.000000,4.000000,4.000000,4.000000,0.000000,4.000000,4.000000,4.000000,4.000000,4.000000,4.000000,66.666664,1.000000,8.333333,1.000000,4.000000,1.000000,4.000000,4.000000,4.000000,4.000000,0.000000,0.000000,4.000000,4.000000,4.000000,4.000000,3.000000,8.000000,0.000000,0.262538,0.630859,-0.289490,0.670288,0.967892,-0.053717,0.026370,-45.181522,-2.270854,-24.679901
1638094774.148662,33.000000,0.000000,4683.333496,4268.974121,4377.820313,4325.897461,4275.897461,4214.487305,4188.846191,4462.179688,4112.948730,4196.410156,4833.461426,4587.179688,4459.230957,4630.512695,0.000000,4.000000,98.000000,,,,0.000000,4.000000,4.000000,4.000000,4.000000,4.000000,4.000000,4.000000,0.000000,4.000000,4.000000,4.000000,4.000000,4.000000,4.000000,66.666664,,,,,,,,,,,,,,,,,,,,,,,,,,,,
1638094774.156470,34.000000,0.000000,4670.897461,4283.077148,4386.153809,4363.205078,4294.487305,4221.410156,4208.461426,4463.461426,4106.922852,4211.410156,4842.820313,4591.538574,4460.000000,4632.051270,0.000000,4.000000,98.000000,,,,0.000000,4.000000,4.000000,4.000000,4.000000,4.000000,4.000000,4.000000,0.000000,4.000000,4.000000,4.000000,4.000000,4.000000,4.000000,66.666664,,,,,,,,,,,,,,,,,,,,,,,,,,,,
1638094774.164378,35.000000,0.000000,4649.743652,4275.384766,4384.743652,4366.410156,4298.589844,4216.025879,4205.769043,4462.051270,4096.794922,4211.282227,4838.205078,4585.897461,4456.410156,4636.538574,0.000000,4.000000,98.000000,,,,0.000000,4.000000,4.000000,4.000000,4.000000,4.000000,4.000000,4.000000,0.000000,4.000000,4.000000,4.000000,4.000000,4.000000,4.000000,66.666664,,,,,,,,,,,,,,,,,,,,,,,,,,,,
1638094774.172186,36.000000,0.000000,4634.230957,4263.846191,4374.230957,4344.358887,4292.436035,4213.846191,4199.230957,4462.692383,4090.000000,4195.128418,4835.000000,4583.846191,4457.051270,4640.641113,0.000000,4.000000,98.000000,,,,0.000000,4.000000,4.000000,4.000000,4.000000,4.000000,4.000000,4.000000,0.000000,4.000000,4.000000,4.000000,4.000000,4.000000,4.000000,66.666664,,,,,,,,,,,,,,,,,9.000000,0.000000,0.262986,0.630432,-0.289307,0.670593,0.988890,-0.070809,0.037114,-45.196701,-2.293769,-24.711912
1638094774.179895,37.000000,0.000000,4616.153809,4266.025879,4360.384766,4328.077148,4293.974121,4217.820313,4205.641113,4462.563965,4096.666504,4191.410156,4846.282227,4588.974121,4459.102539,4638.717773,0.000000,4.000000,98.000000,,,,0.000000,4.000000,4.000000,4.000000,4.000000,4.000000,4.000000,4.000000,0.000000,4.000000,4.000000,4.000000,4.000000,4.000000,4.000000,66.666664,,,,,,,,,,,,,,,,,,,,,,,,,,,,
1638094774.187703,38.000000,0.000000,4594.743652,4269.102539,4349.871582,4330.897461,4295.256348,4209.615234,4206.538574,4459.615234,4096.666504,4200.769043,4856.025879,4578.333496,4458.846191,4630.384766,0.000000,4.000000,98.000000,,,,0.000000,4.000000,4.000000,4.000000,4.000000,4.000000,4.000000,4.000000,0.000000,4.000000,4.000000,4.000000,4.000000,4.000000,4.000000,66.666664,,,,,,,,,,,,,,,,,,,,,,,,,,,,
1638094774.195411,39.000000,0.000000,4576.153809,4263.077148,4341.538574,4336.410156,4285.256348,4197.820313,4198.205078,4459.487305,4088.333252,4200.128418,4853.846191,4558.589844,4453.205078,4618.846191,0.000000,4.000000,98.000000,,,,0.000000,4.000000,4.000000,4.000000,4.000000,4.000000,4.000000,4.000000,0.000000,4.000000,4.000000,4.000000,4.000000,4.000000,4.000000,66.666664,,,,,,,,,,,,,,,,,,,,,,,,,,,,
1638094774.203219,40.000000,0.000000,4560.000000,4254.871582,4338.717773,4321.794922,4273.974121,4205.384766,4201.538574,4462.563965,4092.307617,4193.461426,4851.282227,4563.717773,4446.794922,4615.256348,0.000000,4.000000,98.000000,,,,0.000000,4.000000,4.000000,4.000000,4.000000,4.000000,4.000000,4.000000,0.000000,4.000000,4.000000,4.000000,4.000000,4.000000,4.000000,66.666664,,,,,,,,,,,,,,,,,10.000000,0.000000,0.263047,0.630249,-0.289368,0.670715,0.990355,-0.061531,0.035649,-45.410366,-2.231059,-24.740721
1638094774.210928,41.000000,0.000000,4550.769043,4259.102539,4354.871582,4312.563965,4274.102539,4219.358887,4216.922852,4461.025879,4096.025879,4195.512695,4856.025879,4586.153809,4445.512695,4630.000000,0.000000,4.000000,98.000000,,,,0.000000,4.000000,4.000000,4.000000,4.000000,4.000000,4.000000,4.000000,0.000000,4.000000,4.000000,4.000000,4.000000,4.000000,4.000000,66.666664,,,,,,,,,,,,,,,,,,,,,,,,,,,,
1638094774.218736,42.000000,0.000000,4541.922852,4269.615234,4365.128418,4332.436035,4280.000000,4220.128418,4216.666504,4457.436035,4086.538574,4192.692383,4857.692383,4590.897461,4446.666504,4639.358887,0.000000,4.000000,98.000000,,,,0.000000,4.000000,4.000000,4.000000,4.000000,4.000000,4.000000,4.000000,0.000000,4.000000,4.000000,4.000000,4.000000,4.000000,4.000000,66.666664,,,,,,,,,,,,,,,,,,,,,,,,,,,,
1638094774.226444,43.000000,0.000000,4518.846191,4268.846191,4346.282227,4348.589844,4286.538574,4209.615234,4201.410156,4460.000000,4076.410156,4185.384766,4843.846191,4577.179688,4447.307617,4619.615234,0.000000,4.000000,98.000000,,,,0.000000,4.000000,4.000000,4.000000,4.000000,4.000000,4.000000,4.000000,0.000000,4.000000,4.000000,4.000000,4.000000,4.000000,4.000000,66.666664,,,,,,,,,,,,,,,,,,,,,,,,,,,,
1638094774.234253,44.000000,0.000000,4490.384766,4263.333496,4334.358887,4342.563965,4294.358887,4202.692383,4195.000000,4461.282227,4068.205078,4191.410156,4828.846191,4568.333496,4447.948730,4601.410156,0.000000,4.000000,98.000000,,,,0.000000,4.000000,4.000000,4.000000,4.000000,4.000000,4.000000,4.000000,0.000000,4.000000,4.000000,4.000000,4.000000,4.000000,4.000000,66.666664,,,,,,,,,,,,,,,,,11.000000,0.000000,0.263360,0.630127,-0.289490,0.670654,0.964962,-0.055183,0.032719,-45.352661,-2.174619,-24.766649
1638094774.241961,45.000000,0.000000,4472.820313,4262.820313,4345.641113,4328.717773,4295.384766,4211.025879,4197.436035,4457.948730,4063.589844,4194.358887,4837.179688,4568.846191,4443.974121,4608.077148,0.000000,4.000000,98.000000,,,,0.000000,4.000000,4.000000,4.000000,4.000000,4.000000,4.000000,4.000000,0.000000,4.000000,4.000000,4.000000,4.000000,4.000000,4.000000,66.666664,,,,,,,,,,,,,,,,,,,,,,,,,,,,
1638094774.249769,46.000000,0.000000,4473.589844,4264.871582,4359.615234,4328.205078,4296.025879,4222.563965,4207.563965,4457.692383,4069.871826,4196.794922,4854.230957,4576.153809,4443.717773,4617.179688,0.000000,4.000000,98.000000,,,,0.000000,4.000000,4.000000,4.000000,4.000000,4.000000,4.000000,4.000000,0.000000,4.000000,4.000000,4.000000,4.000000,4.000000,4.000000,66.666664,,,,,,,,,,,,,,,,,,,,,,,,,,,,
1638094774.257477,47.000000,0.000000,4479.743652,4267.307617,4360.769043,4336.153809,4297.563965,4218.077148,4218.846191,4460.384766,4077.179443,4205.384766,4848.717773,4583.333496,4444.743652,4610.384766,0.000000,4.000000,98.000000,,,,0.000000,4.000000,4.000000,4.000000,4.000000,4.000000,4.000000,4.000000,0.000000,4.000000,4.000000,4.000000,4.000000,4.000000,4.000000,66.666664,,,,,,,,,,,,,,,,,,,,,,,,,,,,
1638094774.265286,48.000000,0.000000,4465.256348,4258.974121,4352.179688,4323.974121,4283.461426,4213.717773,4214.358887,4461.153809,4086.153809,4195.000000,4838.589844,4576.922852,4433.846191,4598.589844,0.000000,4.000000,98.000000,,,,0.000000,4.000000,4.000000,4.000000,4.000000,4.000000,4.000000,4.000000,0.000000,4.000000,4.000000,4.000000,4.000000,4.000000,4.000000,66.666664,,,,,,,,,,,,,,,,,12.000000,0.000000,0.263950,0.630066,-0.289368,0.670532,0.983518,-0.050299,0.036137,-45.100727,-2.173824,-24.723316
1638094774.272994,49.000000,0.000000,4443.205078,4246.282227,4344.230957,4293.974121,4268.846191,4213.974121,4202.563965,4461.794922,4111.538574,4175.256348,4836.025879,4568.461426,4428.846191,4597.692383,0.000000,4.000000,98.000000,,,,0.000000,4.000000,4.000000,4.000000,4.000000,4.000000,4.000000,4.000000,0.000000,4.000000,4.000000,4.000000,4.000000,4.000000,4.000000,66.666664,,,,,,,,,,,,,,,,,,,,,,,,,,,,
1638094774.280902,50.000000,0.000000,4438.974121,4247.307617,4340.256348,4292.307617,4275.000000,4206.153809,4199.743652,4462.948730,4128.589844,4175.897461,4823.974121,4566.153809,4432.179688,4595.769043,0.000000,4.000000,98.000000,,,,0.000000,4.000000,4.000000,4.000000,4.000000,4.000000,4.000000,4.000000,0.000000,4.000000,4.000000,4.000000,4.000000,4.000000,4.000000,66.666664,,,,,,,,,,,,,,,,,,,,,,,,,,,,
1638094774.288710,51.000000,0.000000,4441.538574,4251.794922,4337.307617,4324.230957,4282.948730,4197.948730,4197.436035,4462.563965,4106.025879,4180.512695,4817.820313,4565.512695,4426.794922,4587.436035,0.000000,4.000000,98.000000,,,,0.000000,4.000000,4.000000,4.000000,4.000000,4.000000,4.000000,4.000000,0.000000,4.000000,4.000000,4.000000,4.000000,4.000000,4.000000,66.666664,,,,,,,,,,,,,,,,,,,,,,,,,,,,
1638094774.296618,52.000000,0.000000,4437.563965,4257.948730,4334.358887,4343.846191,4278.077148,4204.230957,4194.487305,4459.487305,4085.384521,4177.563965,4824.871582,4564.102539,4427.307617,4585.128418,0.000000,4.000000,98.000000,,,,0.000000,4.000000,4.000000,4.000000,4.000000,4.000000,4.000000,4.000000,0.000000,4.000000,4.000000,4.000000,4.000000,4.000000,4.000000,66.666664,,,,,,,,,,,,,,,,,13.000000,0.000000,0.264151,0.630066,-0.289185,0.670532,0.994750,-0.043462,0.027347,-45.173988,-2.223109,-24.734318
1638094774.304426,53.000000,0.000000,4428.717773,4261.282227,4327.436035,4331.666504,4275.897461,4214.743652,4192.820313,4455.641113,4092.948730,4171.410156,4829.102539,4555.000000,4432.692383,4585.769043,0.000000,4.000000,98.000000,,,,0.000000,4.000000,4.000000,4.000000,4.000000,4.000000,4.000000,4.000000,0.000000,4.000000,4.000000,4.000000,4.000000,4.000000,4.000000,66.666664,,,,,,,,,,,,,,,,,,,,,,,,,,,,
1638094774.312335,54.000000,0.000000,4425.256348,4257.692383,4322.563965,4322.692383,4285.641113,4218.333496,4196.153809,4456.153809,4096.410156,4163.333496,4835.128418,4552.436035,4429.358887,4590.256348,0.000000,4.000000,98.000000,,,,0.000000,4.000000,4.000000,4.000000,4.000000,4.000000,4.000000,4.000000,0.000000,4.000000,4.000000,4.000000,4.000000,4.000000,4.000000,66.666664,,,,,,,,,,,,,,,,,,,,,,,,,,,,
1638094774.320143,55.000000,0.000000,4430.384766,4262.820313,4329.871582,4332.692383,4296.282227,4216.282227,4208.974121,4460.000000,4093.076904,4173.589844,4846.538574,4561.153809,4436.922852,4609.487305,0.000000,4.000000,98.000000,,,,0.000000,4.000000,4.000000,4.000000,4.000000,4.000000,4.000000,4.000000,0.000000,4.000000,4.000000,4.000000,4.000000,4.000000,4.000000,66.666664,,,,,,,,,,,,,,,,,,,,,,,,,,,,
1638094774.328051,56.000000,0.000000,4420.769043,4264.230957,4331.666504,4333.589844,4295.512695,4213.974121,4211.666504,4460.641113,4085.897461,4192.179688,4835.512695,4562.692383,4444.487305,4619.358887,0.000000,4.000000,98.000000,,,,0.000000,4.000000,4.000000,4.000000,4.000000,4.000000,4.000000,4.000000,0.000000,4.000000,4.000000,4.000000,4.000000,4.000000,4.000000,66.666664,,,,,,,,,,,,,,,,,14.000000,0.000000,0.264639,0.630066,-0.288879,0.670471,0.976682,-0.058113,0.033696,-45.189922,-2.217464,-24.760887
1638094774.335859,57.000000,0.000000,4390.897461,4247.307617,4322.692383,4316.794922,4281.538574,4214.358887,4201.025879,4458.205078,4066.666748,4176.538574,4812.948730,4560.641113,4422.179688,4601.922852,0.000000,4.000000,98.000000,,,,0.000000,4.000000,4.000000,4.000000,4.000000,4.000000,4.000000,4.000000,0.000000,4.000000,4.000000,4.000000,4.000000,4.000000,4.000000,66.666664,,,,,,,,,,,,,,,,,,,,,,,,,,,,
1638094774.343767,58.000000,0.000000,4382.692383,4243.461426,4334.487305,4302.948730,4275.000000,4215.897461,4198.077148,4458.205078,4069.615479,4155.256348,4820.256348,4574.615234,4413.589844,4597.436035,0.000000,4.000000,98.000000,,,,0.000000,4.000000,4.000000,4.000000,4.000000,4.000000,4.000000,4.000000,0.000000,4.000000,4.000000,4.000000,4.000000,4.000000,4.000000,66.666664,,,,,,,,,,,,,,,,,,,,,,,,,,,,
1638094774.351575,59.000000,0.000000,4398.717773,4254.871582,4359.487305,4303.333496,4283.077148,4218.077148,4204.358887,4460.641113,4102.948730,4172.948730,4839.487305,4593.205078,4436.025879,4620.641113,0.000000,4.000000,98.000000,,,,0.000000,4.000000,4.000000,4.000000,4.000000,4.000000,4.000000,4.000000,0.000000,4.000000,4.000000,4.000000,4.000000,4.000000,4.000000,66.666664,,,,,,,,,,,,,,,,,,,,,,,,,,,,
1638094774.359484,60.000000,0.000000,4394.358887,4249.230957,4358.077148,4316.922852,4286.666504,4218.333496,4206.282227,4460.641113,4117.820313,4196.282227,4838.077148,4595.256348,4440.256348,4628.717773,0.000000,4.000000,98.000000,,,,0.000000,4.000000,4.000000,4.000000,4.000000,4.000000,4.000000,4.000000,0.000000,4.000000,4.000000,4.000000,4.000000,4.000000,4.000000,66.666664,,,,,,,,,,,,,,,,,15.000000,0.000000,0.265202,0.630127,-0.288513,0.670349,0.978635,-0.050787,0.037602,-45.220932,-2.262385,-24.818130
1638094774.367292,61.000000,0.000000,4377.563965,4245.128418,4342.179688,4324.102539,4280.897461,4215.384766,4196.410156,4458.846191,4106.538574,4197.051270,4833.333496,4591.794922,4434.871582,4618.333496,0.000000,4.000000,98.000000,,,,0.000000,4.000000,4.000000,4.000000,4.000000,4.000000,4.000000,4.000000,0.000000,4.000000,4.000000,4.000000,4.000000,4.000000,4.000000,66.666664,,,,,,,,,,,,,,,,,,,,,,,,,,,,
1638094774.375200,62.000000,0.000000,4373.205078,4253.589844,4339.102539,4317.307617,4275.256348,4212.563965,4182.692383,4456.922852,4099.871582,4194.615234,4844.871582,4589.487305,4449.743652,4615.512695,0.000000,4.000000,98.000000,,,,0.000000,4.000000,4.000000,4.000000,4.000000,4.000000,4.000000,4.000000,0.000000,4.000000,4.000000,4.000000,4.000000,4.000000,4.000000,66.666664,,,,,,,,,,,,,,,,,,,,,,,,,,,,
1638094774.383008,63.000000,0.000000,4361.153809,4248.461426,4333.461426,4317.820313,4274.871582,4217.179688,4186.794922,4455.256348,4095.128174,4193.717773,4844.102539,4578.333496,4451.922852,4608.589844,0.000000,4.000000,98.000000,,,,0.000000,4.000000,4.000000,4.000000,4.000000,4.000000,4.000000,4.000000,0.000000,4.000000,4.000000,4.000000,4.000000,4.000000,4.000000,66.666664,,,,,,,,,,,,,,,,,,,,,,,,,,,,
1638094774.390716,64.000000,0.000000,4336.666504,4236.794922,4316.025879,4325.128418,4280.897461,4225.256348,4202.563965,4455.641113,4084.102539,4189.487305,4818.461426,4559.102539,4430.512695,4587.820313,2690.000000,4.000000,98.000000,,,,0.000000,4.000000,4.000000,4.000000,4.000000,4.000000,4.000000,4.000000,0.000000,4.000000,4.000000,4.000000,4.000000,4.000000,4.000000,66.666664,,,,,,,,,,,,,,,,,16.000000,0.000000,0.265486,0.630249,-0.288269,0.670227,0.984495,-0.041997,0.030765,-45.232170,-2.336146,-24.836319
1638094774.398525,65.000000,0.000000,4318.717773,4234.487305,4297.436035,4315.641113,4282.692383,4221.922852,4198.974121,4457.692383,4072.179443,4178.717773,4805.000000,4541.153809,4413.333496,4570.512695,1913.000000,4.000000,98.000000,,,,0.000000,4.000000,4.000000,4.000000,4.000000,4.000000,4.000000,4.000000,0.000000,4.000000,4.000000,4.000000,4.000000,4.000000,4.000000,66.666664,,,,,,,,,,,,,,,,,,,,,,,,,,,,
1638094774.406233,66.000000,0.000000,4302.563965,4228.589844,4281.410156,4302.051270,4277.820313,4215.384766,4187.563965,4457.948730,4060.512939,4162.820313,4805.384766,4532.051270,4409.487305,4560.769043,2666.000000,4.000000,98.000000,,,,0.000000,4.000000,4.000000,4.000000,4.000000,4.000000,4.000000,4.000000,0.000000,4.000000,4.000000,4.000000,4.000000,4.000000,4.000000,66.666664,,,,,,,,,,,,,,,,,,,,,,,,,,,,
1638094774.414041,67.000000,0.000000,4293.717773,4219.487305,4282.307617,4297.179688,4277.179688,4214.487305,4188.333496,4456.153809,4058.076904,4163.077148,4800.769043,4536.794922,4417.563965,4558.974121,2621.000000,4.000000,98.000000,,,,0.000000,4.000000,4.000000,4.000000,4.000000,4.000000,4.000000,4.000000,0.000000,4.000000,4.000000,4.000000,4.000000,4.000000,4.000000,66.666664,,,,,,,,,,,,,,,,,,,,,,,,,,,,
1638094774.421749,68.000000,0.000000,4305.512695,4227.051270,4303.333496,4287.948730,4280.512695,4213.717773,4193.077148,4457.948730,4062.948730,4181.794922,4796.794922,4550.384766,4431.666504,4567.179688,2075.000000,4.000000,98.000000,,,,0.000000,4.000000,4.000000,4.000000,4.000000,4.000000,4.000000,4.000000,0.000000,4.000000,4.000000,4.000000,4.000000,4.000000,4.000000,66.666664,,,,,,,,,,,,,,,,,17.000000,0.000000,0.265989,0.630371,-0.287964,0.670044,0.974240,-0.045416,0.039556,-45.108955,-2.269198,-24.819353
1638094774.429558,69.000000,0.000000,4313.846191,4245.256348,4314.230957,4294.871582,4286.153809,4213.846191,4189.487305,4458.974121,4063.461426,4186.794922,4798.333496,4556.153809,4429.743652,4571.922852,1872.000000,4.000000,98.000000,,,,0.000000,4.000000,4.000000,4.000000,4.000000,4.000000,4.000000,4.000000,0.000000,4.000000,4.000000,4.000000,4.000000,4.000000,4.000000,66.666664,,,,,,,,,,,,,,,,,,,,,,,,,,,,
1638094774.437266,70.000000,0.000000,4311.538574,4250.128418,4317.563965,4328.589844,4291.025879,4216.153809,4186.538574,4455.256348,4065.769287,4180.128418,4795.256348,4561.794922,4421.153809,4574.487305,2414.000000,4.000000,98.000000,,,,0.000000,4.000000,4.000000,4.000000,4.000000,4.000000,4.000000,4.000000,0.000000,4.000000,4.000000,4.000000,4.000000,4.000000,4.000000,66.666664,,,,,,,,,,,,,,,,,,,,,,,,,,,,
1638094774.445174,71.000000,0.000000,4315.256348,4243.974121,4334.871582,4338.205078,4285.641113,4214.615234,4192.948730,4455.641113,4067.820557,4182.436035,4790.256348,4579.743652,4426.282227,4587.563965,0.000000,4.000000,98.000000,,,,0.000000,4.000000,4.000000,4.000000,4.000000,4.000000,4.000000,4.000000,0.000000,4.000000,4.000000,4.000000,4.000000,4.000000,4.000000,66.666664,,,,,,,,,,,,,,,,,,,,,,,,,,,,
1638094774.452982,72.000000,0.000000,4317.820313,4238.846191,4345.512695,4315.512695,4277.820313,4212.948730,4201.153809,4458.589844,4061.538574,4182.436035,4794.871582,4591.538574,4430.128418,4595.769043,2206.000000,4.000000,98.000000,,,,0.000000,4.000000,4.000000,4.000000,4.000000,4.000000,4.000000,4.000000,0.000000,4.000000,4.000000,4.000000,4.000000,4.000000,4.000000,66.666664,,,,,,,,,,,,,,,,,18.000000,0.000000,0.266635,0.630432,-0.287659,0.669861,0.983518,-0.034672,0.029300,-44.881393,-2.342278,-24.804085
1638094774.460790,73.000000,0.000000,4311.538574,4238.717773,4334.487305,4309.487305,4280.256348,4216.538574,4203.846191,4455.512695,4069.871826,4180.128418,4800.512695,4588.077148,4427.436035,4591.794922,3104.000000,4.000000,98.000000,,,,0.000000,4.000000,4.000000,4.000000,4.000000,4.000000,4.000000,4.000000,0.000000,4.000000,4.000000,4.000000,4.000000,4.000000,4.000000,66.666664,,,,,,,,,,,,,,,,,,,,,,,,,,,,
1638094774.468499,74.000000,0.000000,4298.333496,4232.948730,4313.589844,4312.436035,4279.615234,4218.461426,4196.025879,4453.461426,4092.692383,4180.512695,4790.769043,4573.589844,4426.538574,4583.461426,2565.000000,4.000000,98.000000,,,,0.000000,4.000000,4.000000,4.000000,4.000000,4.000000,4.000000,4.000000,0.000000,4.000000,4.000000,4.000000,4.000000,4.000000,4.000000,66.666664,,,,,,,,,,,,,,,,,,,,,,,,,,,,
1638094774.476407,75.000000,0.000000,4283.077148,4218.589844,4298.077148,4298.333496,4278.333496,4217.563965,4187.436035,4456.922852,4095.512939,4172.307617,4773.461426,4554.743652,4424.743652,4567.563965,2658.000000,4.000000,98.000000,,,,0.000000,4.000000,4.000000,4.000000,4.000000,4.000000,4.000000,4.000000,0.000000,4.000000,4.000000,4.000000,4.000000,4.000000,4.000000,66.666664,,,,,,,,,,,,,,,,,,,,,,,,,,,,
1638094774.484215,76.000000,0.000000,4275.256348,4220.000000,4298.461426,4302.436035,4282.179688,4216.538574,4190.897461,4457.948730,4083.589844,4157.436035,4767.436035,4545.512695,4420.512695,4555.000000,2256.000000,4.000000,98.000000,,,,0.000000,4.000000,4.000000,4.000000,4.000000,4.000000,4.000000,4.000000,0.000000,4.000000,4.000000,4.000000,4.000000,4.000000,4.000000,66.666664,,,,,,,,,,,,,,,,,19.000000,0.000000,0.266566,0.630554,-0.287598,0.669800,0.979123,-0.047369,0.029300,-44.843254,-2.208050,-24.823675
1638094774.492123,77.000000,0.000000,4277.563965,4232.179688,4305.384766,4319.743652,4252.563965,4212.948730,4197.563965,4456.282227,4081.025635,4159.102539,4769.230957,4550.256348,4422.692383,4563.077148,2401.000000,4.000000,98.000000,,,,0.000000,4.000000,4.000000,4.000000,4.000000,4.000000,4.000000,4.000000,0.000000,4.000000,4.000000,4.000000,4.000000,4.000000,4.000000,66.666664,,,,,,,,,,,,,,,,,,,,,,,,,,,,
1638094774.499931,78.000000,0.000000,4286.538574,4234.871582,4319.102539,4300.384766,4195.897461,4217.692383,4204.871582,4455.128418,4084.230713,4182.820313,4772.948730,4563.717773,4436.666504,4582.179688,2565.000000,4.000000,98.000000,,,,0.000000,4.000000,4.000000,4.000000,4.000000,4.000000,4.000000,4.000000,0.000000,4.000000,4.000000,4.000000,4.000000,4.000000,4.000000,66.666664,,,,,,,,,,,,,,,,,,,,,,,,,,,,
1638094774.507839,79.000000,0.000000,4294.487305,4233.205078,4328.461426,4294.743652,4174.230957,4230.641113,4211.025879,4453.333496,4089.358887,4197.692383,4780.512695,4572.820313,4445.897461,4587.436035,2658.000000,4.000000,98.000000,,,,0.000000,4.000000,4.000000,4.000000,4.000000,4.000000,4.000000,4.000000,0.000000,4.000000,4.000000,4.000000,4.000000,4.000000,4.000000,66.666664,,,,,,,,,,,,,,,,,,,,,,,,,,,,
1638094774.515648,80.000000,0.000000,4282.692383,4232.563965,4310.000000,4334.102539,4187.307617,4227.820313,4198.974121,4454.615234,4090.000000,4189.487305,4783.461426,4565.256348,4434.102539,4574.615234,2256.000000,4.000000,98.000000,,,,0.000000,4.000000,4.000000,4.000000,4.000000,4.000000,4.000000,4.000000,0.000000,4.000000,4.000000,4.000000,4.000000,4.000000,4.000000,66.666664,,,,,,,,,,,,,,,,,20.000000,0.000000,0.266719,0.630554,-0.287598,0.669739,0.963497,-0.044439,0.029300,-44.892262,-2.203912,-24.891308
1638094774.523556,81.000000,0.000000,4261.922852,4227.948730,4293.846191,4334.871582,4185.128418,4214.743652,4179.615234,4457.436035,4083.846191,4182.179688,4774.871582,4557.820313,4422.051270,4564.615234,2401.000000,4.000000,98.000000,,,,0.000000,4.000000,4.000000,4.000000,4.000000,4.000000,4.000000,4.000000,0.000000,4.000000,4.000000,4.000000,4.000000,4.000000,4.000000,66.666664,,,,,,,,,,,,,,,,,,,,,,,,,,,,
1638094774.531364,82.000000,0.000000,4271.666504,4228.974121,4315.769043,4301.153809,4168.205078,4215.897461,4182.563965,4462.179688,4082.948730,4185.897461,4776.794922,4574.487305,4435.384766,4575.512695,2565.000000,4.000000,98.000000,,,,0.000000,4.000000,4.000000,4.000000,4.000000,4.000000,4.000000,4.000000,0.000000,4.000000,4.000000,4.000000,4.000000,4.000000,4.000000,66.666664,,,,,,,,,,,,,,,,,,,,,,,,,,,,
1638094774.539272,83.000000,0.000000,4293.589844,4233.461426,4331.666504,4301.538574,4166.794922,4215.128418,4186.538574,4466.025879,4083.589844,4176.794922,4784.615234,4586.794922,4447.051270,4589.358887,2658.000000,4.000000,98.000000,,,,0.000000,4.000000,4.000000,4.000000,4.000000,4.000000,4.000000,4.000000,0.000000,4.000000,4.000000,4.000000,4.000000,4.000000,4.000000,66.666664,,,,,,,,,,,,,,,,,,,,,,,,,,,,
1638094774.547080,84.000000,0.000000,4297.692383,4233.589844,4324.230957,4321.025879,4182.820313,4207.820313,4181.666504,4464.230957,4081.025635,4172.563965,4779.615234,4581.538574,4441.794922,4593.589844,2256.000000,4.000000,98.000000,,,,0.000000,4.000000,4.000000,4.000000,4.000000,4.000000,4.000000,4.000000,0.000000,4.000000,4.000000,4.000000,4.000000,4.000000,4.000000,66.666664,,,,,,,,,,,,,,,,,21.000000,0.000000,0.266938,0.630554,-0.287537,0.669678,0.974728,-0.048346,0.043462,-44.986370,-2.183521,-24.885511
1638094774.554988,85.000000,0.000000,4297.563965,4237.307617,4326.410156,4323.461426,4197.820313,4216.282227,4187.948730,4462.563965,4083.974365,4193.205078,4776.025879,4587.436035,4443.589844,4603.333496,2401.000000,4.000000,98.000000,,,,0.000000,4.000000,4.000000,4.000000,4.000000,4.000000,4.000000,4.000000,0.000000,4.000000,4.000000,4.000000,4.000000,4.000000,4.000000,66.666664,,,,,,,,,,,,,,,,,,,,,,,,,,,,
1638094774.562797,86.000000,0.000000,4291.794922,4232.692383,4318.461426,4295.641113,4192.563965,4218.205078,4182.563965,4462.692383,4078.589844,4195.000000,4776.282227,4587.436035,4445.000000,4603.077148,2565.000000,4.000000,98.000000,,,,0.000000,4.000000,4.000000,4.000000,4.000000,4.000000,4.000000,4.000000,0.000000,4.000000,4.000000,4.000000,4.000000,4.000000,4.000000,66.666664,,,,,,,,,,,,,,,,,,,,,,,,,,,,
1638094774.570505,87.000000,0.000000,4276.794922,4221.666504,4300.512695,4274.230957,4175.128418,4200.769043,4162.692383,4460.256348,4061.538574,4174.102539,4765.384766,4569.230957,4438.333496,4581.922852,2658.000000,4.000000,98.000000,,,,0.000000,4.000000,4.000000,4.000000,4.000000,4.000000,4.000000,4.000000,0.000000,4.000000,4.000000,4.000000,4.000000,4.000000,4.000000,66.666664,,,,,,,,,,,,,,,,,,,,,,,,,,,,
1638094774.578313,88.000000,0.000000,4274.230957,4225.641113,4310.256348,4302.948730,4183.974121,4204.487305,4174.358887,4457.948730,4068.333252,4175.769043,4758.077148,4573.974121,4435.384766,4579.230957,2256.000000,4.000000,98.000000,,,,0.000000,4.000000,4.000000,4.000000,4.000000,4.000000,4.000000,4.000000,0.000000,4.000000,4.000000,4.000000,4.000000,4.000000,4.000000,66.666664,,,,,,,,,,,,,,,,,22.000000,0.000000,0.267204,0.630432,-0.287415,0.669739,0.976682,-0.056159,0.028812,-44.954399,-2.081836,-24.963627
1638094774.586021,89.000000,0.000000,4282.436035,4237.692383,4327.948730,4335.897461,4214.487305,4222.692383,4202.051270,4459.743652,4088.974365,4201.153809,4776.538574,4598.717773,4447.051270,4602.820313,2401.000000,4.000000,98.000000,,,,0.000000,4.000000,4.000000,4.000000,4.000000,4.000000,4.000000,4.000000,0.000000,4.000000,4.000000,4.000000,4.000000,4.000000,4.000000,66.666664,,,,,,,,,,,,,,,,,,,,,,,,,,,,
1638094774.593930,90.000000,0.000000,4275.769043,4234.487305,4323.461426,4320.769043,4213.589844,4217.307617,4196.153809,4460.000000,4088.205078,4203.333496,4789.615234,4597.948730,4457.051270,4601.538574,2565.000000,4.000000,98.000000,,,,0.000000,4.000000,4.000000,4.000000,4.000000,4.000000,4.000000,4.000000,0.000000,4.000000,4.000000,4.000000,4.000000,4.000000,4.000000,66.666664,,,,,,,,,,,,,,,,,,,,,,,,,,,,
1638094774.601738,91.000000,0.000000,4274.615234,4231.282227,4318.461426,4307.307617,4191.794922,4205.256348,4177.051270,4457.179688,4107.820313,4184.358887,4784.102539,4589.102539,4455.641113,4587.307617,2658.000000,4.000000,98.000000,,,,0.000000,4.000000,4.000000,4.000000,4.000000,4.000000,4.000000,4.000000,0.000000,4.000000,4.000000,4.000000,4.000000,4.000000,4.000000,66.666664,,,,,,,,,,,,,,,,,,,,,,,,,,,,
1638094774.609546,92.000000,0.000000,4306.282227,4255.256348,4335.641113,4319.487305,4203.333496,4214.743652,4190.256348,4457.948730,4172.436035,4200.512695,4790.897461,4610.641113,4465.128418,4612.563965,2256.000000,4.000000,98.000000,,,,0.000000,4.000000,4.000000,4.000000,4.000000,4.000000,4.000000,4.000000,0.000000,4.000000,4.000000,4.000000,4.000000,4.000000,4.000000,66.666664,,,,,,,,,,,,,,,,,23.000000,0.000000,0.267558,0.630310,-0.287354,0.669739,0.984984,-0.055671,0.037114,-45.108959,-2.123652,-25.050596
1638094774.617254,93.000000,0.000000,4321.410156,4274.358887,4344.102539,4327.948730,4222.692383,4223.461426,4202.051270,4459.743652,4198.846191,4229.871582,4797.307617,4623.461426,4477.179688,4635.128418,2401.000000,4.000000,98.000000,,,,0.000000,4.000000,4.000000,4.000000,4.000000,4.000000,4.000000,4.000000,0.000000,4.000000,4.000000,4.000000,4.000000,4.000000,4.000000,66.666664,,,,,,,,,,,,,,,,,,,,,,,,,,,,
1638094774.625162,94.000000,0.000000,4292.563965,4256.794922,4324.102539,4325.641113,4215.000000,4211.666504,4181.666504,4457.179688,4163.077148,4218.846191,4785.897461,4601.666504,4466.922852,4612.563965,2565.000000,4.000000,98.000000,,,,0.000000,4.000000,4.000000,4.000000,4.000000,4.000000,4.000000,4.000000,0.000000,4.000000,4.000000,4.000000,4.000000,4.000000,4.000000,66.666664,,,,,,,,,,,,,,,,,,,,,,,,,,,,
1638094774.632971,95.000000,0.000000,4272.179688,4238.205078,4312.692383,4305.897461,4209.102539,4202.948730,4168.333496,4454.358887,4135.256348,4193.846191,4773.846191,4588.077148,4455.128418,4596.922852,2658.000000,4.000000,98.000000,,,,0.000000,4.000000,4.000000,4.000000,4.000000,4.000000,4.000000,4.000000,0.000000,4.000000,4.000000,4.000000,4.000000,4.000000,4.000000,66.666664,,,,,,,,,,,,,,,,,,,,,,,,,,,,
1638094774.640879,96.000000,0.000000,4280.641113,4245.384766,4320.000000,4301.922852,4215.512695,4211.794922,4184.102539,4455.641113,4129.102539,4195.769043,4774.358887,4591.538574,4462.948730,4606.282227,2256.000000,4.000000,98.000000,,,,0.000000,4.000000,4.000000,4.000000,4.000000,4.000000,4.000000,4.000000,0.000000,4.000000,4.000000,4.000000,4.000000,4.000000,4.000000,66.666664,1.000000,16.666666,1.000000,4.000000,1.000000,4.000000,4.000000,4.000000,4.000000,0.000000,1.000000,4.000000,4.000000,4.000000,4.000000,3.000000,24.000000,0.000000,0.267932,0.630188,-0.287415,0.669678,0.995239,-0.031742,0.033207,-45.131397,-2.077953,-25.012203
1638094774.648687,97.000000,0.000000,4277.307617,4243.589844,4307.307617,4326.410156,4214.743652,4221.025879,4196.794922,4457.051270,4112.820313,4195.256348,4766.538574,4582.179688,4456.922852,4595.769043,2401.000000,4.000000,98.000000,,,,0.000000,4.000000,4.000000,4.000000,4.000000,4.000000,4.000000,4.000000,0.000000,4.000000,4.000000,4.000000,4.000000,4.000000,4.000000,66.666664,,,,,,,,,,,,,,,,,,,,,,,,,,,,
1638094774.656595,98.000000,0.000000,4267.436035,4227.563965,4288.589844,4327.948730,4215.897461,4217.436035,4198.846191,4458.589844,4101.538574,4185.256348,4757.436035,4571.666504,4437.179688,4579.871582,2565.000000,4.000000,98.000000,,,,0.000000,4.000000,4.000000,4.000000,4.000000,4.000000,4.000000,4.000000,0.000000,4.000000,4.000000,4.000000,4.000000,4.000000,4.000000,66.666664,,,,,,,,,,,,,,,,,,,,,,,,,,,,
1638094774.664403,99.000000,0.000000,4281.538574,4225.000000,4287.692383,4305.128418,4217.820313,4206.794922,4209.487305,4460.384766,4105.000000,4193.717773,4757.436035,4573.974121,4438.589844,4582.307617,2658.000000,4.000000,98.000000,,,,0.000000,4.000000,4.000000,4.000000,4.000000,4.000000,4.000000,4.000000,0.000000,4.000000,4.000000,4.000000,4.000000,4.000000,4.000000,66.666664,,,,,,,,,,,,,,,,,,,,,,,,,,,,
1638094774.672311,100.000000,0.000000,4310.000000,4231.794922,4286.922852,4301.410156,4213.077148,4200.256348,4221.666504,4458.333496,4108.077148,4205.384766,4766.410156,4574.358887,4451.282227,4585.256348,2256.000000,4.000000,98.000000,,,,0.000000,4.000000,4.000000,4.000000,4.000000,4.000000,4.000000,4.000000,0.000000,4.000000,4.000000,4.000000,4.000000,4.000000,4.000000,66.666664,,,,,,,,,,,,,,,,,25.000000,0.000000,0.268150,0.630188,-0.287354,0.669617,0.973752,-0.051764,0.041997,-45.118256,-2.070158,-24.910984
1638094774.680120,101.000000,0.000000,4346.153809,4231.666504,4289.230957,4316.410156,4214.230957,4203.205078,4219.615234,4455.000000,4107.436035,4208.717773,4806.922852,4575.769043,4457.948730,4590.256348,2401.000000,4.000000,98.000000,,,,0.000000,4.000000,4.000000,4.000000,4.000000,4.000000,4.000000,4.000000,0.000000,4.000000,4.000000,4.000000,4.000000,4.000000,4.000000,66.666664,,,,,,,,,,,,,,,,,,,,,,,,,,,,
1638094774.688028,102.000000,0.000000,4395.000000,4232.179688,4303.461426,4321.410156,4219.871582,4206.410156,4215.512695,4455.897461,4103.333496,4210.897461,4871.153809,4583.589844,4459.230957,4600.000000,2565.000000,4.000000,98.000000,,,,0.000000,4.000000,4.000000,4.000000,4.000000,4.000000,4.000000,4.000000,0.000000,4.000000,4.000000,4.000000,4.000000,4.000000,4.000000,66.666664,,,,,,,,,,,,,,,,,,,,,,,,,,,,
1638094774.695836,103.000000,0.000000,4438.717773,4242.436035,4310.769043,4310.769043,4217.307617,4202.563965,4224.871582,4457.820313,4103.077148,4213.333496,4931.410156,4585.897461,4462.179688,4602.051270,2658.000000,4.000000,98.000000,,,,0.000000,4.000000,4.000000,4.000000,4.000000,4.000000,4.000000,4.000000,0.000000,4.000000,4.000000,4.000000,4.000000,4.000000,4.000000,66.666664,,,,,,,,,,,,,,,,,,,,,,,,,,,,
1638094774.703744,104.000000,0.000000,4452.563965,4246.922852,4310.256348,4301.666504,4212.563965,4198.205078,4232.436035,4455.256348,4100.256348,4206.922852,4985.256348,4581.922852,4458.589844,4601.025879,2256.000000,4.000000,98.000000,,,,0.000000,4.000000,4.000000,4.000000,4.000000,4.000000,4.000000,4.000000,0.000000,4.000000,4.000000,4.000000,4.000000,4.000000,4.000000,66.666664,,,,,,,,,,,,,,,,,26.000000,0.000000,0.268455,0.630188,-0.287354,0.669495,0.977170,-0.049811,0.028812,-45.023098,-2.129809,-24.786552
1638094774.711552,105.000000,0.000000,4440.128418,4240.128418,4304.743652,4315.256348,4217.820313,4201.538574,4228.461426,4454.358887,4095.256348,4194.615234,5021.794922,4580.384766,4447.820313,4598.717773,2401.000000,4.000000,98.000000,,,,0.000000,4.000000,4.000000,4.000000,4.000000,4.000000,4.000000,4.000000,0.000000,4.000000,4.000000,4.000000,4.000000,4.000000,4.000000,66.666664,,,,,,,,,,,,,,,,,,,,,,,,,,,,
1638094774.719460,106.000000,0.000000,4422.307617,4232.692383,4289.358887,4328.717773,4222.307617,4212.436035,4233.077148,4456.410156,4103.717773,4197.692383,5031.922852,4578.589844,4444.615234,4584.487305,2565.000000,4.000000,98.000000,,,,0.000000,4.000000,4.000000,4.000000,4.000000,4.000000,4.000000,4.000000,0.000000,4.000000,4.000000,4.000000,4.000000,4.000000,4.000000,66.666664,,,,,,,,,,,,,,,,,,,,,,,,,,,,
1638094774.727269,107.000000,0.000000,4399.615234,4224.102539,4278.077148,4323.589844,4217.179688,4212.563965,4249.230957,4456.410156,4107.051270,4208.205078,5055.000000,4569.615234,4438.846191,4570.000000,2658.000000,4.000000,98.000000,,,,0.000000,4.000000,4.000000,4.000000,4.000000,4.000000,4.000000,4.000000,0.000000,4.000000,4.000000,4.000000,4.000000,4.000000,4.000000,66.666664,,,,,,,,,,,,,,,,,,,,,,,,,,,,
1638094774.734977,108.000000,0.000000,4375.128418,4218.589844,4275.128418,4309.358887,4217.307617,4199.871582,4257.948730,4455.641113,4094.743652,4203.333496,5092.179688,4560.000000,4420.641113,4566.282227,2256.000000,4.000000,98.000000,,,,0.000000,4.000000,4.000000,4.000000,4.000000,4.000000,4.000000,4.000000,0.000000,4.000000,4.000000,4.000000,4.000000,4.000000,4.000000,66.666664,,,,,,,,,,,,,,,,,27.000000,0.000000,0.268264,0.630371,-0.287415,0.669373,0.985472,-0.045904,0.024905,-45.154121,-2.183495,-24.641230
1638094774.742785,109.000000,0.000000,4372.307617,4230.384766,4282.948730,4304.358887,4219.358887,4205.769043,4264.487305,4455.256348,4098.974121,4197.948730,5114.615234,4570.641113,4418.717773,4576.794922,2401.000000,4.000000,98.000000,,,,0.000000,4.000000,4.000000,4.000000,4.000000,4.000000,4.000000,4.000000,0.000000,4.000000,4.000000,4.000000,4.000000,4.000000,4.000000,66.666664,,,,,,,,,,,,,,,,,,,,,,,,,,,,
1638094774.750493,110.000000,0.000000,4377.692383,4240.512695,4293.846191,4320.256348,4216.922852,4217.692383,4275.897461,4454.230957,4122.051270,4205.512695,5148.077148,4593.461426,4438.717773,4595.512695,2565.000000,4.000000,98.000000,,,,0.000000,4.000000,4.000000,4.000000,4.000000,4.000000,4.000000,4.000000,0.000000,4.000000,4.000000,4.000000,4.000000,4.000000,4.000000,66.666664,,,,,,,,,,,,,,,,,,,,,,,,,,,,
1638094774.758302,111.000000,0.000000,4367.307617,4233.205078,4292.692383,4316.922852,4221.538574,4205.769043,4274.102539,4453.205078,4126.666504,4219.743652,5192.692383,4601.410156,4453.461426,4605.384766,2658.000000,4.000000,98.000000,,,,0.000000,4.000000,4.000000,4.000000,4.000000,4.000000,4.000000,4.000000,0.000000,4.000000,4.000000,4.000000,4.000000,4.000000,4.000000,66.666664,,,,,,,,,,,,,,,,,,,,,,,,,,,,
1638094774.766010,112.000000,0.000000,4352.051270,4231.410156,4286.282227,4294.743652,4228.846191,4194.615234,4257.563965,4454.102539,4117.692383,4233.717773,5210.512695,4590.769043,4454.615234,4603.717773,2256.000000,4.000000,98.000000,,,,0.000000,4.000000,4.000000,4.000000,4.000000,4.000000,4.000000,4.000000,0.000000,4.000000,4.000000,4.000000,4.000000,4.000000,4.000000,66.666664,,,,,,,,,,,,,,,,,28.000000,0.000000,0.268434,0.630493,-0.287415,0.669189,0.991332,-0.038579,0.032719,-45.022041,-2.165145,-24.627108
1638094774.773918,113.000000,0.000000,4336.922852,4235.000000,4278.974121,4304.871582,4229.358887,4200.897461,4248.333496,4454.487305,4121.794922,4226.666504,5219.102539,4575.256348,4447.563965,4595.897461,2401.000000,4.000000,98.000000,,,,0.000000,4.000000,4.000000,4.000000,4.000000,4.000000,4.000000,4.000000,0.000000,4.000000,4.000000,4.000000,4.000000,4.000000,4.000000,66.666664,,,,,,,,,,,,,,,,,,,,,,,,,,,,
1638094774.781726,114.000000,0.000000,4328.717773,4236.666504,4275.384766,4326.538574,4231.153809,4204.102539,4249.743652,4452.948730,4125.128418,4207.179688,5242.948730,4568.077148,4444.358887,4593.589844,2565.000000,4.000000,98.000000,,,,0.000000,4.000000,4.000000,4.000000,4.000000,4.000000,4.000000,4.000000,0.000000,4.000000,4.000000,4.000000,4.000000,4.000000,4.000000,66.666664,,,,,,,,,,,,,,,,,,,,,,,,,,,,
1638094774.789634,115.000000,0.000000,4327.051270,4236.794922,4278.846191,4309.615234,4233.205078,4200.256348,4248.077148,4453.717773,4106.410156,4205.769043,5264.358887,4570.897461,4447.692383,4597.820313,2658.000000,4.000000,98.000000,,,,0.000000,4.000000,4.000000,4.000000,4.000000,4.000000,4.000000,4.000000,0.000000,4.000000,4.000000,4.000000,4.000000,4.000000,4.000000,66.666664,,,,,,,,,,,,,,,,,,,,,,,,,,,,
1638094774.797442,116.000000,0.000000,4312.820313,4231.153809,4281.922852,4304.358887,4237.820313,4199.487305,4254.743652,4456.025879,4101.025879,4210.384766,5293.077148,4575.897461,4447.307617,4602.948730,2256.000000,4.000000,98.000000,,,,0.000000,4.000000,4.000000,4.000000,4.000000,4.000000,4.000000,4.000000,0.000000,4.000000,4.000000,4.000000,4.000000,4.000000,4.000000,66.666664,,,,,,,,,,,,,,,,,29.000000,0.000000,0.268225,0.630554,-0.287476,0.669189,0.984495,-0.041509,0.048834,-45.153172,-2.065297,-24.614397
1638094774.805251,117.000000,0.000000,4288.461426,4233.205078,4281.153809,4327.692383,4250.256348,4201.794922,4280.128418,4455.769043,4137.563965,4211.410156,5321.025879,4578.846191,4445.000000,4602.051270,2401.000000,4.000000,98.000000,,,,0.000000,4.000000,4.000000,4.000000,4.000000,4.000000,4.000000,4.000000,0.000000,4.000000,4.000000,4.000000,4.000000,4.000000,4.000000,66.666664,,,,,,,,,,,,,,,,,,,,,,,,,,,,
1638094774.812959,118.000000,0.000000,4262.436035,4239.102539,4280.384766,4316.153809,4246.153809,4204.102539,4288.077148,4455.769043,4162.179688,4218.205078,5326.410156,4579.102539,4441.922852,4597.179688,2565.000000,4.000000,98.000000,,,,0.000000,4.000000,4.000000,4.000000,4.000000,4.000000,4.000000,4.000000,0.000000,4.000000,4.000000,4.000000,4.000000,4.000000,4.000000,66.666664,,,,,,,,,,,,,,,,,,,,,,,,,,,,
1638094774.820767,119.000000,0.000000,4219.358887,4222.307617,4265.641113,4296.794922,4234.615234,4201.025879,4269.743652,4456.794922,4143.461426,4203.461426,5323.205078,4567.820313,4427.948730,4583.717773,2658.000000,4.000000,98.000000,,,,0.000000,4.000000,4.000000,4.000000,4.000000,4.000000,4.000000,4.000000,0.000000,4.000000,4.000000,4.000000,4.000000,4.000000,4.000000,66.666664,,,,,,,,,,,,,,,,,,,,,,,,,,,,
1638094774.828476,120.000000,0.000000,4182.948730,4204.615234,4249.487305,4284.230957,4229.871582,4199.743652,4266.153809,4455.256348,4127.179688,4163.846191,5327.563965,4554.871582,4411.282227,4566.666504,2256.000000,4.000000,98.000000,,,,0.000000,4.000000,4.000000,4.000000,4.000000,4.000000,4.000000,4.000000,0.000000,4.000000,4.000000,4.000000,4.000000,4.000000,4.000000,66.666664,,,,,,,,,,,,,,,,,30.000000,0.000000,0.268037,0.630615,-0.287659,0.669128,0.984007,-0.054694,0.045416,-45.187855,-2.058768,-24.636290
1638094774.836284,121.000000,0.000000,4193.461426,4218.717773,4271.153809,4273.461426,4215.000000,4209.487305,4281.666504,4454.358887,4140.000000,4171.410156,5356.025879,4567.307617,4424.230957,4580.641113,2401.000000,4.000000,98.000000,,,,0.000000,4.000000,4.000000,4.000000,4.000000,4.000000,4.000000,4.000000,0.000000,4.000000,4.000000,4.000000,4.000000,4.000000,4.000000,66.666664,,,,,,,,,,,,,,,,,,,,,,,,,,,,
1638094774.843992,122.000000,0.000000,4206.282227,4234.615234,4289.743652,4300.384766,4218.589844,4217.179688,4286.025879,4455.641113,4163.333496,4223.333496,5398.589844,4583.846191,4456.282227,4608.717773,2565.000000,4.000000,98.000000,,,,0.000000,4.000000,4.000000,4.000000,4.000000,4.000000,4.000000,4.000000,0.000000,4.000000,4.000000,4.000000,4.000000,4.000000,4.000000,66.666664,,,,,,,,,,,,,,,,,,,,,,,,,,,,
1638094774.851900,123.000000,0.000000,4188.461426,4229.871582,4272.179688,4323.717773,4249.871582,4213.205078,4278.077148,4453.974121,4181.282227,4234.102539,5415.000000,4575.000000,4461.025879,4607.563965,2658.000000,4.000000,98.000000,,,,0.000000,4.000000,4.000000,4.000000,4.000000,4.000000,4.000000,4.000000,0.000000,4.000000,4.000000,4.000000,4.000000,4.000000,4.000000,66.666664,,,,,,,,,,,,,,,,,,,,,,,,,,,,
1638094774.859708,124.000000,0.000000,4177.436035,4228.205078,4260.641113,4303.333496,4259.615234,4204.230957,4270.384766,4451.282227,4186.410156,4203.461426,5410.641113,4560.000000,4440.769043,4593.846191,2256.000000,4.000000,98.000000,,,,0.000000,4.000000,4.000000,4.000000,4.000000,4.000000,4.000000,4.000000,0.000000,4.000000,4.000000,4.000000,4.000000,4.000000,4.000000,66.666664,,,,,,,,,,,,,,,,,31.000000,0.000000,0.268224,0.630554,-0.287903,0.669006,0.984984,-0.047857,0.035161,-45.119068,-1.902891,-24.639328
1638094774.867616,125.000000,0.000000,4180.512695,4234.358887,4264.487305,4296.025879,4245.000000,4199.871582,4264.102539,4453.205078,4187.563965,4198.974121,5427.692383,4562.820313,4445.000000,4603.589844,2401.000000,4.000000,98.000000,,,,0.000000,4.000000,4.000000,4.000000,4.000000,4.000000,4.000000,4.000000,0.000000,4.000000,4.000000,4.000000,4.000000,4.000000,4.000000,66.666664,,,,,,,,,,,,,,,,,,,,,,,,,,,,
1638094774.875425,126.000000,0.000000,4172.563965,4226.922852,4259.743652,4311.025879,4240.384766,4199.743652,4255.769043,4456.666504,4188.974121,4220.128418,5447.307617,4571.538574,4463.589844,4614.743652,2565.000000,4.000000,98.000000,,,,0.000000,4.000000,4.000000,4.000000,4.000000,4.000000,4.000000,4.000000,0.000000,4.000000,4.000000,4.000000,4.000000,4.000000,4.000000,66.666664,,,,,,,,,,,,,,,,,,,,,,,,,,,,
1638094774.883333,127.000000,0.000000,4160.384766,4222.179688,4261.282227,4306.410156,4246.282227,4197.179688,4253.205078,4456.538574,4178.205078,4220.769043,5451.410156,4577.820313,4457.820313,4612.051270,98.000000,4.000000,98.000000,,,,0.000000,4.000000,4.000000,4.000000,4.000000,4.000000,4.000000,4.000000,0.000000,4.000000,4.000000,4.000000,4.000000,4.000000,4.000000,66.666664,,,,,,,,,,,,,,,,,,,,,,,,,,,,
1638094774.891141,0.000000,0.000000,4167.179688,4252.179688,4284.871582,4306.922852,4255.769043,4199.871582,4266.794922,4454.230957,4166.538574,4216.922852,5478.974121,4588.717773,4461.538574,4624.615234,2682.000000,4.000000,98.000000,,,,0.000000,4.000000,4.000000,4.000000,4.000000,4.000000,4.000000,4.000000,0.000000,4.000000,4.000000,4.000000,4.000000,4.000000,4.000000,66.666664,,,,,,,,,,,,,,,,,0.000000,0.000000,0.268115,0.630859,-0.287903,0.668762,0.981077,-0.040532,0.030277,-45.157162,-1.829268,-24.658728
1638094774.899049,1.000000,0.000000,4174.102539,4277.563965,4295.769043,4313.846191,4261.153809,4209.230957,4284.102539,4455.000000,4168.461426,4227.563965,5502.051270,4593.846191,4477.307617,4640.897461,1888.000000,4.000000,98.000000,,,,0.000000,4.000000,4.000000,4.000000,4.000000,4.000000,4.000000,4.000000,0.000000,4.000000,4.000000,4.000000,4.000000,4.000000,4.000000,66.666664,,,,,,,,,,,,,,,,,,,,,,,,,,,,
1638094774.906857,2.000000,0.000000,4161.538574,4260.128418,4288.077148,4303.717773,4250.384766,4218.589844,4286.282227,4457.563965,4171.794922,4220.897461,5486.666504,4591.153809,4462.307617,4641.153809,2675.000000,4.000000,98.000000,,,,0.000000,4.000000,4.000000,4.000000,4.000000,4.000000,4.000000,4.000000,0.000000,4.000000,4.000000,4.000000,4.000000,4.000000,4.000000,66.666664,,,,,,,,,,,,,,,,,,,,,,,,,,,,
1638094774.914566,3.000000,0.000000,4142.179688,4244.230957,4277.307617,4310.000000,4249.487305,4216.025879,4281.153809,4455.769043,4167.948730,4199.487305,5464.230957,4586.410156,4430.384766,4629.358887,2621.000000,4.000000,98.000000,,,,0.000000,4.000000,4.000000,4.000000,4.000000,4.000000,4.000000,4.000000,0.000000,4.000000,4.000000,4.000000,4.000000,4.000000,4.000000,66.666664,,,,,,,,,,,,,,,,,,,,,,,,,,,,
1638094774.922374,4.000000,0.000000,4131.410156,4257.948730,4268.077148,4331.025879,4257.948730,4204.615234,4279.743652,4453.461426,4168.205078,4193.717773,5447.948730,4579.615234,4419.615234,4619.358887,2067.000000,4.000000,98.000000,,,,0.000000,4.000000,4.000000,4.000000,4.000000,4.000000,4.000000,4.000000,0.000000,4.000000,4.000000,4.000000,4.000000,4.000000,4.000000,66.666664,,,,,,,,,,,,,,,,,1.000000,0.000000,0.268419,0.631165,-0.287659,0.668457,0.984984,-0.046392,0.027347,-45.124779,-1.779675,-24.659523
1638094774.930082,5.000000,0.000000,4125.769043,4261.538574,4265.512695,4326.153809,4255.128418,4207.948730,4281.025879,4457.051270,4169.358887,4200.384766,5423.974121,4573.077148,4423.846191,4617.820313,1875.000000,4.000000,98.000000,,,,0.000000,4.000000,4.000000,4.000000,4.000000,4.000000,4.000000,4.000000,0.000000,4.000000,4.000000,4.000000,4.000000,4.000000,4.000000,66.666664,,,,,,,,,,,,,,,,,,,,,,,,,,,,
1638094774.937890,6.000000,0.000000,4106.794922,4246.410156,4256.153809,4307.307617,4258.205078,4217.692383,4279.230957,4459.487305,4166.794922,4200.769043,5404.102539,4563.333496,4422.820313,4611.153809,2399.000000,4.000000,98.000000,,,,0.000000,4.000000,4.000000,4.000000,4.000000,4.000000,4.000000,4.000000,0.000000,4.000000,4.000000,4.000000,4.000000,4.000000,4.000000,66.666664,,,,,,,,,,,,,,,,,,,,,,,,,,,,
1638094774.945599,7.000000,0.000000,4088.846191,4243.077148,4242.051270,4312.051270,4264.487305,4208.589844,4270.769043,4456.410156,4183.077148,4203.205078,5400.000000,4555.000000,4427.179688,4601.153809,0.000000,4.000000,98.000000,,,,0.000000,4.000000,4.000000,4.000000,4.000000,4.000000,4.000000,4.000000,0.000000,4.000000,4.000000,4.000000,4.000000,4.000000,4.000000,66.666664,,,,,,,,,,,,,,,,,,,,,,,,,,,,
1638094774.953407,8.000000,0.000000,4094.358887,4253.589844,4239.230957,4323.846191,4257.820313,4198.205078,4262.820313,4454.358887,4222.692383,4213.333496,5402.051270,4559.743652,4445.641113,4608.333496,2160.000000,4.000000,98.000000,,,,0.000000,4.000000,4.000000,4.000000,4.000000,4.000000,4.000000,4.000000,0.000000,4.000000,4.000000,4.000000,4.000000,4.000000,4.000000,66.666664,,,,,,,,,,,,,,,,,2.000000,0.000000,0.268542,0.631104,-0.287537,0.668518,0.975705,-0.056159,0.018557,-45.095634,-1.735041,-24.693569
1638094774.961115,9.000000,0.000000,4095.000000,4253.333496,4237.692383,4314.871582,4249.743652,4201.410156,4254.102539,4453.846191,4254.102539,4214.487305,5391.922852,4559.615234,4447.179688,4620.384766,3099.000000,4.000000,98.000000,,,,0.000000,4.000000,4.000000,4.000000,4.000000,4.000000,4.000000,4.000000,0.000000,4.000000,4.000000,4.000000,4.000000,4.000000,4.000000,66.666664,,,,,,,,,,,,,,,,,,,,,,,,,,,,
1638094774.968923,10.000000,0.000000,4072.820557,4231.282227,4228.205078,4291.025879,4246.538574,4193.974121,4232.179688,4454.102539,4258.717773,4199.871582,5358.333496,4547.051270,4418.717773,4613.974121,2545.000000,4.000000,98.000000,,,,0.000000,4.000000,4.000000,4.000000,4.000000,4.000000,4.000000,4.000000,0.000000,4.000000,4.000000,4.000000,4.000000,4.000000,4.000000,66.666664,,,,,,,,,,,,,,,,,,,,,,,,,,,,
1638094774.976632,11.000000,0.000000,4067.179443,4222.820313,4230.384766,4281.794922,4246.666504,4177.948730,4215.769043,4453.974121,4255.897461,4187.179688,5322.436035,4550.128418,4418.077148,4612.307617,2643.000000,4.000000,98.000000,,,,0.000000,4.000000,4.000000,4.000000,4.000000,4.000000,4.000000,4.000000,0.000000,4.000000,4.000000,4.000000,4.000000,4.000000,4.000000,66.666664,,,,,,,,,,,,,,,,,,,,,,,,,,,,
1638094774.984440,12.000000,0.000000,4084.358887,4241.410156,4242.179688,4295.641113,4244.487305,4188.205078,4224.615234,4453.589844,4251.538574,4190.897461,5293.333496,4567.051270,4444.743652,4623.205078,2172.000000,4.000000,98.000000,,,,0.000000,4.000000,4.000000,4.000000,4.000000,4.000000,4.000000,4.000000,0.000000,4.000000,4.000000,4.000000,4.000000,4.000000,4.000000,66.666664,,,,,,,,,,,,,,,,,3.000000,0.000000,0.268624,0.630920,-0.287720,0.668579,0.985472,-0.062019,0.025394,-45.169403,-1.678203,-24.674213
1638094774.992148,13.000000,0.000000,4078.718018,4247.179688,4238.461426,4314.487305,4247.563965,4211.538574,4243.461426,4454.871582,4237.436035,4193.589844,5246.025879,4561.282227,4436.153809,4614.102539,2386.000000,4.000000,98.000000,,,,0.000000,4.000000,4.000000,4.000000,4.000000,4.000000,4.000000,4.000000,0.000000,4.000000,4.000000,4.000000,4.000000,4.000000,4.000000,66.666664,,,,,,,,,,,,,,,,,,,,,,,,,,,,
1638094774.999956,14.000000,0.000000,4058.974365,4239.487305,4226.666504,4310.384766,4259.230957,4209.743652,4255.384766,4455.512695,4229.230957,4186.538574,5191.922852,4542.948730,4412.436035,4601.666504,2545.000000,4.000000,98.000000,,,,0.000000,4.000000,4.000000,4.000000,4.000000,4.000000,4.000000,4.000000,0.000000,4.000000,4.000000,4.000000,4.000000,4.000000,4.000000,66.666664,,,,,,,,,,,,,,,,,,,,,,,,,,,,
1638094775.007665,15.000000,0.000000,4062.179443,4248.589844,4226.538574,4312.307617,4261.410156,4197.563965,4262.948730,4454.871582,4232.436035,4186.794922,5167.307617,4547.948730,4411.794922,4610.897461,2643.000000,4.000000,98.000000,,,,0.000000,4.000000,4.000000,4.000000,4.000000,4.000000,4.000000,4.000000,0.000000,4.000000,4.000000,4.000000,4.000000,4.000000,4.000000,66.666664,,,,,,,,,,,,,,,,,,,,,,,,,,,,
1638094775.015473,16.000000,0.000000,4068.076904,4250.897461,4241.538574,4336.282227,4254.615234,4209.487305,4269.230957,4455.000000,4232.692383,4191.538574,5146.282227,4567.307617,4419.102539,4618.717773,0.000000,4.000000,98.000000,,,,0.000000,4.000000,4.000000,4.000000,4.000000,4.000000,4.000000,4.000000,0.000000,4.000000,4.000000,4.000000,4.000000,4.000000,4.000000,66.666664,,,,,,,,,,,,,,,,,4.000000,0.000000,0.268535,0.630920,-0.288086,0.668457,0.980588,-0.052252,0.035161,-45.219131,-1.727050,-24.790125
1638094775.023181,17.000000,0.000000,4062.051270,4234.871582,4249.615234,4318.589844,4259.871582,4218.717773,4268.717773,4456.666504,4234.230957,4189.615234,5103.461426,4576.922852,4425.512695,4618.974121,0.000000,4.000000,98.000000,,,,0.000000,4.000000,4.000000,4.000000,4.000000,4.000000,4.000000,4.000000,0.000000,4.000000,4.000000,4.000000,4.000000,4.000000,4.000000,66.666664,,,,,,,,,,,,,,,,,,,,,,,,,,,,
1638094775.030989,18.000000,0.000000,4066.410156,4236.922852,4241.922852,4285.897461,4266.538574,4209.487305,4264.615234,4456.666504,4248.333496,4188.077148,5087.436035,4575.000000,4435.769043,4631.410156,0.000000,4.000000,98.000000,,,,0.000000,4.000000,4.000000,4.000000,4.000000,4.000000,4.000000,4.000000,0.000000,4.000000,4.000000,4.000000,4.000000,4.000000,4.000000,66.666664,,,,,,,,,,,,,,,,,,,,,,,,,,,,
1638094775.038698,19.000000,0.000000,4075.512939,4249.230957,4236.025879,4303.077148,4265.512695,4212.436035,4263.461426,4456.410156,4252.179688,4190.512695,5094.615234,4568.205078,4440.641113,4647.307617,0.000000,4.000000,98.000000,,,,0.000000,4.000000,4.000000,4.000000,4.000000,4.000000,4.000000,4.000000,0.000000,4.000000,4.000000,4.000000,4.000000,4.000000,4.000000,66.666664,,,,,,,,,,,,,,,,,,,,,,,,,,,,
1638094775.046506,20.000000,0.000000,4065.384521,4240.000000,4226.666504,4317.692383,4265.384766,4216.282227,4256.666504,4457.307617,4228.205078,4188.461426,5062.563965,4558.846191,4433.461426,4642.563965,0.000000,4.000000,98.000000,,,,0.000000,4.000000,4.000000,4.000000,4.000000,4.000000,4.000000,4.000000,0.000000,4.000000,4.000000,4.000000,4.000000,4.000000,4.000000,66.666664,,,,,,,,,,,,,,,,,5.000000,0.000000,0.268769,0.630737,-0.288269,0.668457,0.971310,-0.041021,0.041021,-45.180550,-1.604345,-24.694447
1638094775.054214,21.000000,0.000000,4049.871826,4227.179688,4211.410156,4292.179688,4248.077148,4199.487305,4236.153809,4457.436035,4202.948730,4175.128418,5016.153809,4554.743652,4414.871582,4628.077148,0.000000,4.000000,98.000000,,,,0.000000,4.000000,4.000000,4.000000,4.000000,4.000000,4.000000,4.000000,0.000000,4.000000,4.000000,4.000000,4.000000,4.000000,4.000000,66.666664,,,,,,,,,,,,,,,,,,,,,,,,,,,,
1638094775.062122,22.000000,0.000000,4059.871826,4233.077148,4215.256348,4292.179688,4232.820313,4195.512695,4212.948730,4456.282227,4192.563965,4157.307617,5004.615234,4560.897461,4413.846191,4631.666504,0.000000,4.000000,98.000000,,,,0.000000,4.000000,4.000000,4.000000,4.000000,4.000000,4.000000,4.000000,0.000000,4.000000,4.000000,4.000000,4.000000,4.000000,4.000000,66.666664,,,,,,,,,,,,,,,,,,,,,,,,,,,,
1638094775.069931,23.000000,0.000000,4088.974365,4239.743652,4239.230957,4314.615234,4248.077148,4201.666504,4201.025879,4455.256348,4190.000000,4155.897461,4990.641113,4566.153809,4439.743652,4651.922852,0.000000,4.000000,98.000000,,,,0.000000,4.000000,4.000000,4.000000,4.000000,4.000000,4.000000,4.000000,0.000000,4.000000,4.000000,4.000000,4.000000,4.000000,4.000000,66.666664,,,,,,,,,,,,,,,,,,,,,,,,,,,,
1638094775.077839,24.000000,0.000000,4097.051270,4234.871582,4238.974121,4298.461426,4251.794922,4188.461426,4195.512695,4456.153809,4183.205078,4172.051270,4961.410156,4562.563965,4442.948730,4653.717773,0.000000,4.000000,98.000000,,,,0.000000,4.000000,4.000000,4.000000,4.000000,4.000000,4.000000,4.000000,0.000000,4.000000,4.000000,4.000000,4.000000,4.000000,4.000000,66.666664,,,,,,,,,,,,,,,,,6.000000,0.000000,0.268846,0.630676,-0.288330,0.668457,0.974728,-0.041997,0.028324,-45.229164,-1.393910,-24.808334
1638094775.085647,25.000000,0.000000,4076.923096,4231.410156,4212.948730,4287.179688,4243.205078,4184.743652,4199.615234,4457.179688,4180.641113,4178.077148,4952.820313,4555.897461,4422.307617,4634.487305,0.000000,4.000000,98.000000,,,,0.000000,4.000000,4.000000,4.000000,4.000000,4.000000,4.000000,4.000000,0.000000,4.000000,4.000000,4.000000,4.000000,4.000000,4.000000,66.666664,,,,,,,,,,,,,,,,,,,,,,,,,,,,
1638094775.093555,26.000000,0.000000,4068.461426,4237.948730,4206.666504,4314.102539,4251.025879,4201.794922,4220.256348,4455.897461,4191.794922,4174.871582,4951.666504,4557.820313,4425.128418,4630.256348,0.000000,4.000000,98.000000,,,,0.000000,4.000000,4.000000,4.000000,4.000000,4.000000,4.000000,4.000000,0.000000,4.000000,4.000000,4.000000,4.000000,4.000000,4.000000,66.666664,,,,,,,,,,,,,,,,,,,,,,,,,,,,
1638094775.101363,27.000000,0.000000,4073.974365,4233.974121,4214.358887,4317.563965,4257.563965,4204.230957,4236.153809,4454.743652,4193.974121,4175.512695,4927.051270,4560.384766,4433.077148,4630.000000,0.000000,4.000000,98.000000,,,,0.000000,4.000000,4.000000,4.000000,4.000000,4.000000,4.000000,4.000000,0.000000,4.000000,4.000000,4.000000,4.000000,4.000000,4.000000,66.666664,,,,,,,,,,,,,,,,,,,,,,,,,,,,
1638094775.109271,28.000000,0.000000,4069.358887,4213.846191,4208.077148,4289.358887,4256.794922,4202.820313,4234.230957,4457.948730,4181.025879,4167.307617,4890.897461,4553.974121,4418.974121,4615.256348,0.000000,4.000000,98.000000,,,,0.000000,4.000000,4.000000,4.000000,4.000000,4.000000,4.000000,4.000000,0.000000,4.000000,4.000000,4.000000,4.000000,4.000000,4.000000,66.666664,,,,,,,,,,,,,,,,,7.000000,0.000000,0.268703,0.630737,-0.288330,0.668457,0.984007,-0.055183,0.029300,-45.239578,-1.554519,-24.910835
1638094775.117080,29.000000,0.000000,4069.487061,4216.282227,4200.641113,4293.717773,4263.333496,4217.563965,4233.846191,4458.077148,4185.512695,4157.948730,4874.615234,4552.179688,4415.897461,4613.974121,0.000000,4.000000,98.000000,,,,0.000000,4.000000,4.000000,4.000000,4.000000,4.000000,4.000000,4.000000,0.000000,4.000000,4.000000,4.000000,4.000000,4.000000,4.000000,66.666664,,,,,,,,,,,,,,,,,,,,,,,,,,,,
1638094775.124988,30.000000,0.000000,4075.256348,4233.974121,4200.769043,4305.512695,4263.974121,4221.794922,4237.436035,4454.871582,4209.871582,4161.794922,4875.641113,4555.512695,4422.307617,4623.077148,0.000000,4.000000,98.000000,,,,0.000000,4.000000,4.000000,4.000000,4.000000,4.000000,4.000000,4.000000,0.000000,4.000000,4.000000,4.000000,4.000000,4.000000,4.000000,66.666664,,,,,,,,,,,,,,,,,,,,,,,,,,,,
1638094775.132796,31.000000,0.000000,4078.461426,4233.333496,4204.102539,4288.717773,4258.717773,4210.000000,4236.282227,4456.666504,4237.692383,4174.743652,4877.563965,4561.025879,4422.051270,4625.128418,0.000000,4.000000,98.000000,,,,0.000000,4.000000,4.000000,4.000000,4.000000,4.000000,4.000000,4.000000,0.000000,4.000000,4.000000,4.000000,4.000000,4.000000,4.000000,66.666664,,,,,,,,,,,,,,,,,,,,,,,,,,,,
1638094775.140504,32.000000,0.000000,4094.615479,4235.256348,4223.589844,4296.794922,4261.922852,4213.589844,4235.384766,4460.256348,4268.717773,4194.487305,4879.871582,4580.256348,4437.436035,4640.384766,0.000000,4.000000,98.000000,,,,0.000000,4.000000,4.000000,4.000000,4.000000,4.000000,4.000000,4.000000,0.000000,4.000000,4.000000,4.000000,4.000000,4.000000,4.000000,66.666664,1.000000,8.333333,1.000000,4.000000,1.000000,4.000000,4.000000,4.000000,4.000000,0.000000,1.000000,4.000000,0.000000,4.000000,4.000000,4.000000,8.000000,0.000000,0.268670,0.630798,-0.288086,0.668518,0.984007,-0.047857,0.044927,-45.132290,-1.515734,-24.903084
1638094775.148312,33.000000,0.000000,4117.563965,4257.307617,4247.820313,4318.846191,4266.666504,4217.563965,4225.641113,4460.384766,4285.000000,4206.153809,4870.256348,4596.025879,4458.846191,4661.794922,0.000000,4.000000,98.000000,,,,0.000000,4.000000,4.000000,4.000000,4.000000,4.000000,4.000000,4.000000,0.000000,4.000000,4.000000,4.000000,4.000000,4.000000,4.000000,66.666664,,,,,,,,,,,,,,,,,,,,,,,,,,,,
1638094775.156021,34.000000,0.000000,4109.230957,4256.538574,4230.384766,4296.794922,4265.128418,4202.436035,4201.153809,4459.230957,4268.333496,4196.025879,4830.512695,4567.051270,4446.666504,4645.256348,0.000000,4.000000,98.000000,,,,0.000000,4.000000,4.000000,4.000000,4.000000,4.000000,4.000000,4.000000,0.000000,4.000000,4.000000,4.000000,4.000000,4.000000,4.000000,66.666664,,,,,,,,,,,,,,,,,,,,,,,,,,,,
1638094775.163829,35.000000,0.000000,4088.718018,4224.615234,4187.948730,4276.282227,4262.563965,4192.820313,4182.820313,4457.820313,4238.461426,4174.487305,4790.128418,4524.230957,4418.333496,4605.641113,0.000000,4.000000,98.000000,,,,0.000000,4.000000,4.000000,4.000000,4.000000,4.000000,4.000000,4.000000,0.000000,4.000000,4.000000,4.000000,4.000000,4.000000,4.000000,66.666664,,,,,,,,,,,,,,,,,,,,,,,,,,,,
1638094775.171537,36.000000,0.000000,4104.358887,4220.641113,4180.384766,4300.897461,4263.077148,4197.948730,4174.871582,4457.307617,4214.871582,4158.589844,4791.794922,4526.538574,4418.333496,4600.641113,0.000000,4.000000,98.000000,,,,0.000000,4.000000,4.000000,4.000000,4.000000,4.000000,4.000000,4.000000,0.000000,4.000000,4.000000,4.000000,4.000000,4.000000,4.000000,66.666664,,,,,,,,,,,,,,,,,9.000000,0.000000,0.268489,0.631042,-0.287720,0.668518,0.978147,-0.052252,0.024905,-45.252392,-1.564161,-25.096109
1638094775.179345,37.000000,0.000000,4141.153809,4235.128418,4199.743652,4307.692383,4265.384766,4200.897461,4165.897461,4457.051270,4208.461426,4150.000000,4799.743652,4548.717773,4431.538574,4620.000000,0.000000,4.000000,98.000000,,,,0.000000,4.000000,4.000000,4.000000,4.000000,4.000000,4.000000,4.000000,0.000000,4.000000,4.000000,4.000000,4.000000,4.000000,4.000000,66.666664,,,,,,,,,,,,,,,,,,,,,,,,,,,,
1638094775.187054,38.000000,0.000000,4168.846191,4231.410156,4208.974121,4295.897461,4263.589844,4205.128418,4170.641113,4457.436035,4217.563965,4160.128418,4781.025879,4556.025879,4428.077148,4624.743652,0.000000,4.000000,98.000000,,,,0.000000,4.000000,4.000000,4.000000,4.000000,4.000000,4.000000,4.000000,0.000000,4.000000,4.000000,4.000000,4.000000,4.000000,4.000000,66.666664,,,,,,,,,,,,,,,,,,,,,,,,,,,,
1638094775.194862,39.000000,0.000000,4200.256348,4237.436035,4221.410156,4307.179688,4261.794922,4212.948730,4192.307617,4460.000000,4225.897461,4186.410156,4775.897461,4568.077148,4425.384766,4627.563965,0.000000,4.000000,98.000000,,,,0.000000,4.000000,4.000000,4.000000,4.000000,4.000000,4.000000,4.000000,0.000000,4.000000,4.000000,4.000000,4.000000,4.000000,4.000000,66.666664,,,,,,,,,,,,,,,,,,,,,,,,,,,,
1638094775.202570,40.000000,0.000000,4226.538574,4244.487305,4235.256348,4304.871582,4262.948730,4218.717773,4200.897461,4461.538574,4238.717773,4190.769043,4785.384766,4580.512695,4432.820313,4635.128418,0.000000,4.000000,98.000000,,,,0.000000,4.000000,4.000000,4.000000,4.000000,4.000000,4.000000,4.000000,0.000000,4.000000,4.000000,4.000000,4.000000,4.000000,4.000000,66.666664,,,,,,,,,,,,,,,,,10.000000,0.000000,0.268489,0.631348,-0.287476,0.668335,0.968868,-0.041509,0.029789,-45.277153,-1.557745,-25.119831
1638094775.210378,41.000000,0.000000,4215.000000,4220.256348,4224.358887,4290.897461,4265.128418,4217.051270,4187.436035,4458.589844,4263.717773,4173.589844,4772.179688,4574.871582,4429.102539,4631.025879,0.000000,4.000000,98.000000,,,,0.000000,4.000000,4.000000,4.000000,4.000000,4.000000,4.000000,4.000000,0.000000,4.000000,4.000000,4.000000,4.000000,4.000000,4.000000,66.666664,,,,,,,,,,,,,,,,,,,,,,,,,,,,
1638094775.218087,42.000000,0.000000,4199.487305,4217.307617,4220.512695,4314.487305,4268.589844,4210.384766,4176.922852,4456.282227,4303.846191,4179.743652,4757.436035,4576.538574,4432.692383,4632.179688,0.000000,4.000000,98.000000,,,,0.000000,4.000000,4.000000,4.000000,4.000000,4.000000,4.000000,4.000000,0.000000,4.000000,4.000000,4.000000,4.000000,4.000000,4.000000,66.666664,,,,,,,,,,,,,,,,,,,,,,,,,,,,
1638094775.225995,43.000000,0.000000,4202.051270,4239.487305,4234.487305,4319.230957,4266.538574,4208.461426,4169.358887,4458.974121,4372.563965,4201.025879,4760.128418,4586.666504,4454.871582,4645.384766,0.000000,4.000000,98.000000,,,,0.000000,4.000000,4.000000,4.000000,4.000000,4.000000,4.000000,4.000000,0.000000,4.000000,4.000000,4.000000,4.000000,4.000000,4.000000,66.666664,,,,,,,,,,,,,,,,,,,,,,,,,,,,
1638094775.233803,44.000000,0.000000,4187.820313,4222.948730,4223.205078,4280.512695,4260.641113,4208.846191,4153.333496,4460.256348,4437.948730,4188.974121,4753.333496,4572.948730,4452.436035,4636.282227,0.000000,4.000000,98.000000,,,,0.000000,4.000000,4.000000,4.000000,4.000000,4.000000,4.000000,4.000000,0.000000,4.000000,4.000000,4.000000,4.000000,4.000000,4.000000,66.666664,,,,,,,,,,,,,,,,,11.000000,0.000000,0.268845,0.631409,-0.287292,0.668213,0.991332,-0.055671,0.036626,-45.199440,-1.418637,-25.074514
1638094775.241611,45.000000,0.000000,4180.641113,4215.128418,4216.794922,4286.410156,4270.769043,4211.538574,4151.153809,4458.717773,4467.179688,4180.384766,4745.128418,4565.512695,4439.871582,4628.846191,0.000000,4.000000,98.000000,,,,0.000000,4.000000,4.000000,4.000000,4.000000,4.000000,4.000000,4.000000,0.000000,4.000000,4.000000,4.000000,4.000000,4.000000,4.000000,66.666664,,,,,,,,,,,,,,,,,,,,,,,,,,,,
1638094775.249320,46.000000,0.000000,4188.461426,4236.025879,4234.102539,4313.589844,4281.153809,4210.512695,4153.205078,4460.384766,4491.410156,4193.205078,4746.538574,4576.282227,4449.487305,4644.358887,0.000000,4.000000,98.000000,,,,0.000000,4.000000,4.000000,4.000000,4.000000,4.000000,4.000000,4.000000,0.000000,4.000000,4.000000,4.000000,4.000000,4.000000,4.000000,66.666664,,,,,,,,,,,,,,,,,,,,,,,,,,,,
1638094775.257228,47.000000,0.000000,4176.794922,4223.589844,4226.410156,4299.230957,4267.563965,4203.205078,4137.563965,4461.410156,4561.282227,4181.922852,4739.615234,4571.282227,4453.077148,4641.282227,0.000000,4.000000,98.000000,,,,0.000000,4.000000,4.000000,4.000000,4.000000,4.000000,4.000000,4.000000,0.000000,4.000000,4.000000,4.000000,4.000000,4.000000,4.000000,66.666664,,,,,,,,,,,,,,,,,,,,,,,,,,,,
1638094775.265036,48.000000,0.000000,4168.589844,4210.000000,4210.512695,4286.410156,4258.077148,4200.512695,4135.512695,4460.512695,4661.794922,4182.307617,4736.794922,4567.948730,4450.128418,4626.922852,0.000000,4.000000,98.000000,,,,0.000000,4.000000,4.000000,4.000000,4.000000,4.000000,4.000000,4.000000,0.000000,4.000000,4.000000,4.000000,4.000000,4.000000,4.000000,66.666664,,,,,,,,,,,,,,,,,12.000000,0.000000,0.268837,0.631348,-0.287292,0.668274,0.975705,-0.048346,0.033207,-44.996162,-1.576773,-25.033730
1638094775.272944,49.000000,0.000000,4177.307617,4220.897461,4216.410156,4286.794922,4265.128418,4201.922852,4150.000000,4463.077148,4752.179688,4212.051270,4744.615234,4573.205078,4458.589844,4628.974121,0.000000,4.000000,98.000000,,,,0.000000,4.000000,4.000000,4.000000,4.000000,4.000000,4.000000,4.000000,0.000000,4.000000,4.000000,4.000000,4.000000,4.000000,4.000000,66.666664,,,,,,,,,,,,,,,,,,,,,,,,,,,,
1638094775.280752,50.000000,0.000000,4173.205078,4218.077148,4217.051270,4284.358887,4267.051270,4205.897461,4153.974121,4464.871582,4843.461426,4213.974121,4754.230957,4566.410156,4456.153809,4630.000000,0.000000,4.000000,98.000000,,,,0.000000,4.000000,4.000000,4.000000,4.000000,4.000000,4.000000,4.000000,0.000000,4.000000,4.000000,4.000000,4.000000,4.000000,4.000000,66.666664,,,,,,,,,,,,,,,,,,,,,,,,,,,,
1638094775.288660,51.000000,0.000000,4168.333496,4221.666504,4215.512695,4296.794922,4268.846191,4211.025879,4160.128418,4464.871582,4932.436035,4201.922852,4764.102539,4571.153809,4445.128418,4627.179688,0.000000,4.000000,98.000000,,,,0.000000,4.000000,4.000000,4.000000,4.000000,4.000000,4.000000,4.000000,0.000000,4.000000,4.000000,4.000000,4.000000,4.000000,4.000000,66.666664,,,,,,,,,,,,,,,,,,,,,,,,,,,,
1638094775.296469,52.000000,0.000000,4184.743652,4234.871582,4226.153809,4310.512695,4273.333496,4209.615234,4175.256348,4466.666504,4962.179688,4207.820313,4760.769043,4593.333496,4441.282227,4644.358887,0.000000,4.000000,98.000000,,,,0.000000,4.000000,4.000000,4.000000,4.000000,4.000000,4.000000,4.000000,0.000000,4.000000,4.000000,4.000000,4.000000,4.000000,4.000000,66.666664,,,,,,,,,,,,,,,,,13.000000,0.000000,0.268763,0.631287,-0.287354,0.668335,0.973752,-0.044439,0.045904,-45.046543,-1.735762,-25.063690
1638094775.304377,53.000000,0.000000,4200.000000,4221.025879,4240.384766,4301.794922,4267.179688,4204.615234,4176.282227,4469.102539,4971.153809,4207.436035,4753.846191,4598.205078,4441.153809,4673.974121,0.000000,4.000000,98.000000,,,,0.000000,4.000000,4.000000,4.000000,4.000000,4.000000,4.000000,4.000000,0.000000,4.000000,4.000000,4.000000,4.000000,4.000000,4.000000,66.666664,,,,,,,,,,,,,,,,,,,,,,,,,,,,
1638094775.312185,54.000000,0.000000,4212.820313,4219.871582,4253.333496,4303.461426,4268.846191,4210.256348,4170.512695,4470.128418,5050.384766,4213.717773,4764.615234,4598.461426,4453.717773,4696.538574,0.000000,4.000000,98.000000,,,,0.000000,4.000000,4.000000,4.000000,4.000000,4.000000,4.000000,4.000000,0.000000,4.000000,4.000000,4.000000,4.000000,4.000000,4.000000,66.666664,,,,,,,,,,,,,,,,,,,,,,,,,,,,
1638094775.319893,55.000000,0.000000,4229.615234,4240.128418,4242.692383,4308.717773,4282.563965,4208.974121,4165.641113,4471.538574,5092.307617,4229.615234,4765.384766,4601.282227,4469.230957,4697.948730,0.000000,4.000000,98.000000,,,,0.000000,4.000000,4.000000,4.000000,4.000000,4.000000,4.000000,4.000000,0.000000,4.000000,4.000000,4.000000,4.000000,4.000000,4.000000,66.666664,,,,,,,,,,,,,,,,,,,,,,,,,,,,
1638094775.327701,56.000000,0.000000,4237.948730,4224.487305,4210.128418,4287.692383,4273.205078,4198.205078,4155.769043,4473.205078,4986.025879,4220.897461,4746.153809,4582.563965,4459.871582,4674.358887,0.000000,4.000000,98.000000,,,,0.000000,4.000000,4.000000,4.000000,4.000000,4.000000,4.000000,4.000000,0.000000,4.000000,4.000000,4.000000,4.000000,4.000000,4.000000,66.666664,,,,,,,,,,,,,,,,,14.000000,0.000000,0.268716,0.631104,-0.287231,0.668579,0.979123,-0.065438,0.040532,-45.091892,-1.795519,-24.957321
1638094775.335410,57.000000,0.000000,4237.563965,4197.436035,4194.743652,4275.384766,4253.589844,4201.153809,4148.717773,4472.820313,4840.256348,4203.717773,4728.461426,4565.512695,4436.282227,4649.743652,0.000000,4.000000,98.000000,,,,0.000000,4.000000,4.000000,4.000000,4.000000,4.000000,4.000000,4.000000,0.000000,4.000000,4.000000,4.000000,4.000000,4.000000,4.000000,66.666664,,,,,,,,,,,,,,,,,,,,,,,,,,,,
1638094775.343218,58.000000,0.000000,4236.922852,4209.230957,4202.948730,4281.025879,4253.205078,4199.487305,4145.384766,4471.922852,4748.077148,4191.922852,4724.743652,4572.820313,4428.589844,4645.384766,0.000000,4.000000,98.000000,,,,0.000000,4.000000,4.000000,4.000000,4.000000,4.000000,4.000000,4.000000,0.000000,4.000000,4.000000,4.000000,4.000000,4.000000,4.000000,66.666664,,,,,,,,,,,,,,,,,,,,,,,,,,,,
1638094775.350926,59.000000,0.000000,4235.769043,4225.128418,4212.179688,4282.307617,4251.666504,4188.333496,4138.077148,4470.512695,4678.846191,4185.128418,4728.077148,4581.922852,4434.487305,4651.538574,0.000000,4.000000,98.000000,,,,0.000000,4.000000,4.000000,4.000000,4.000000,4.000000,4.000000,4.000000,0.000000,4.000000,4.000000,4.000000,4.000000,4.000000,4.000000,66.666664,,,,,,,,,,,,,,,,,,,,,,,,,,,,
1638094775.358734,60.000000,0.000000,4216.538574,4206.794922,4205.897461,4268.846191,4245.897461,4185.256348,4125.256348,4470.641113,4620.000000,4178.846191,4710.384766,4571.025879,4427.307617,4637.948730,0.000000,4.000000,98.000000,,,,0.000000,4.000000,4.000000,4.000000,4.000000,4.000000,4.000000,4.000000,0.000000,4.000000,4.000000,4.000000,4.000000,4.000000,4.000000,66.666664,,,,,,,,,,,,,,,,,15.000000,0.000000,0.268729,0.631042,-0.287354,0.668579,0.982053,-0.057136,0.044927,-45.116035,-1.782634,-24.928257
1638094775.366443,61.000000,0.000000,4196.922852,4191.922852,4196.025879,4262.179688,4256.025879,4186.025879,4119.871582,4475.512695,4595.128418,4172.563965,4688.077148,4563.077148,4424.230957,4619.743652,0.000000,4.000000,98.000000,,,,0.000000,4.000000,4.000000,4.000000,4.000000,4.000000,4.000000,4.000000,0.000000,4.000000,4.000000,4.000000,4.000000,4.000000,4.000000,66.666664,,,,,,,,,,,,,,,,,,,,,,,,,,,,
1638094775.374251,62.000000,0.000000,4207.307617,4210.384766,4209.743652,4282.948730,4266.794922,4185.000000,4121.538574,4475.512695,4584.358887,4187.436035,4699.102539,4580.384766,4448.717773,4637.179688,0.000000,4.000000,98.000000,,,,0.000000,4.000000,4.000000,4.000000,4.000000,4.000000,4.000000,4.000000,0.000000,4.000000,4.000000,4.000000,4.000000,4.000000,4.000000,66.666664,,,,,,,,,,,,,,,,,,,,,,,,,,,,
1638094775.381959,63.000000,0.000000,4224.743652,4234.358887,4234.487305,4308.205078,4264.615234,4187.692383,4118.717773,4472.563965,4555.897461,4210.897461,4719.615234,4597.692383,4466.794922,4663.846191,0.000000,4.000000,98.000000,,,,0.000000,4.000000,4.000000,4.000000,4.000000,4.000000,4.000000,4.000000,0.000000,4.000000,4.000000,4.000000,4.000000,4.000000,4.000000,66.666664,,,,,,,,,,,,,,,,,,,,,,,,,,,,
1638094775.389767,64.000000,0.000000,4217.436035,4235.384766,4237.307617,4297.948730,4265.897461,4194.615234,4120.512695,4473.333496,4510.000000,4200.128418,4713.333496,4593.461426,4459.230957,4659.743652,2712.000000,4.000000,98.000000,,,,0.000000,4.000000,4.000000,4.000000,4.000000,4.000000,4.000000,4.000000,0.000000,4.000000,4.000000,4.000000,4.000000,4.000000,4.000000,66.666664,,,,,,,,,,,,,,,,,16.000000,0.000000,0.268838,0.630737,-0.287354,0.668823,0.994750,-0.054694,0.031742,-45.171097,-1.704371,-24.985430
1638094775.397476,65.000000,0.000000,4200.769043,4221.922852,4223.717773,4279.230957,4266.410156,4200.000000,4134.743652,4475.256348,4476.666504,4178.461426,4695.512695,4579.230957,4455.641113,4641.794922,1903.000000,4.000000,98.000000,,,,0.000000,4.000000,4.000000,4.000000,4.000000,4.000000,4.000000,4.000000,0.000000,4.000000,4.000000,4.000000,4.000000,4.000000,4.000000,66.666664,,,,,,,,,,,,,,,,,,,,,,,,,,,,
1638094775.405284,66.000000,0.000000,4193.461426,4215.512695,4212.051270,4294.102539,4261.410156,4202.563965,4143.333496,4475.000000,4463.205078,4178.589844,4678.077148,4569.102539,4457.051270,4632.307617,2702.000000,4.000000,98.000000,,,,0.000000,4.000000,4.000000,4.000000,4.000000,4.000000,4.000000,4.000000,0.000000,4.000000,4.000000,4.000000,4.000000,4.000000,4.000000,66.666664,,,,,,,,,,,,,,,,,,,,,,,,,,,,
1638094775.412992,67.000000,0.000000,4197.563965,4213.717773,4208.077148,4299.102539,4269.871582,4199.230957,4140.128418,4473.846191,4443.974121,4169.487305,4656.922852,4568.974121,4447.563965,4630.897461,2670.000000,4.000000,98.000000,,,,0.000000,4.000000,4.000000,4.000000,4.000000,4.000000,4.000000,4.000000,0.000000,4.000000,4.000000,4.000000,4.000000,4.000000,4.000000,66.666664,,,,,,,,,,,,,,,,,,,,,,,,,,,,
1638094775.420800,68.000000,0.000000,4235.512695,4215.000000,4218.846191,4275.512695,4285.897461,4198.846191,4141.538574,4474.487305,4419.871582,4156.922852,4651.153809,4576.410156,4439.487305,4635.128418,2092.000000,4.000000,98.000000,,,,0.000000,4.000000,4.000000,4.000000,4.000000,4.000000,4.000000,4.000000,0.000000,4.000000,4.000000,4.000000,4.000000,4.000000,4.000000,66.666664,,,,,,,,,,,,,,,,,17.000000,0.000000,0.268985,0.630554,-0.287476,0.668884,0.972775,-0.058601,0.027347,-45.220654,-1.833934,-25.036888
1638094775.428509,69.000000,0.000000,4290.128418,4218.205078,4232.692383,4272.692383,4284.102539,4208.846191,4144.230957,4475.384766,4403.461426,4169.487305,4649.230957,4580.641113,4438.205078,4634.871582,1898.000000,4.000000,98.000000,,,,0.000000,4.000000,4.000000,4.000000,4.000000,4.000000,4.000000,4.000000,0.000000,4.000000,4.000000,4.000000,4.000000,4.000000,4.000000,66.666664,,,,,,,,,,,,,,,,,,,,,,,,,,,,
1638094775.436317,70.000000,0.000000,4306.538574,4219.102539,4230.641113,4291.282227,4267.563965,4212.692383,4140.641113,4475.769043,4388.717773,4185.256348,4629.358887,4578.717773,4432.436035,4631.153809,2428.000000,4.000000,98.000000,,,,0.000000,4.000000,4.000000,4.000000,4.000000,4.000000,4.000000,4.000000,0.000000,4.000000,4.000000,4.000000,4.000000,4.000000,4.000000,66.666664,,,,,,,,,,,,,,,,,,,,,,,,,,,,
1638094775.444025,71.000000,0.000000,4282.051270,4221.282227,4217.692383,4304.358887,4265.128418,4205.512695,4134.358887,4477.051270,4370.256348,4189.102539,4615.256348,4576.538574,4427.692383,4631.025879,0.000000,4.000000,98.000000,,,,0.000000,4.000000,4.000000,4.000000,4.000000,4.000000,4.000000,4.000000,0.000000,4.000000,4.000000,4.000000,4.000000,4.000000,4.000000,66.666664,,,,,,,,,,,,,,,,,,,,,,,,,,,,
1638094775.451933,72.000000,0.000000,4253.205078,4219.230957,4204.230957,4302.179688,4274.358887,4197.179688,4120.897461,4477.051270,4350.512695,4179.358887,4623.589844,4564.871582,4430.897461,4623.205078,2164.000000,4.000000,98.000000,,,,0.000000,4.000000,4.000000,4.000000,4.000000,4.000000,4.000000,4.000000,0.000000,4.000000,4.000000,4.000000,4.000000,4.000000,4.000000,66.666664,,,,,,,,,,,,,,,,,18.000000,0.000000,0.269284,0.630371,-0.287598,0.668884,0.973752,-0.041997,0.041021,-45.331924,-1.850540,-24.983198
1638094775.459742,73.000000,0.000000,4228.846191,4205.128418,4195.128418,4274.615234,4261.666504,4191.410156,4101.153809,4476.794922,4326.153809,4160.000000,4627.948730,4543.589844,4440.769043,4612.692383,3102.000000,4.000000,98.000000,,,,0.000000,4.000000,4.000000,4.000000,4.000000,4.000000,4.000000,4.000000,0.000000,4.000000,4.000000,4.000000,4.000000,4.000000,4.000000,66.666664,,,,,,,,,,,,,,,,,,,,,,,,,,,,
1638094775.467650,74.000000,0.000000,4212.179688,4193.717773,4196.794922,4255.897461,4242.948730,4183.974121,4089.230713,4475.769043,4301.538574,4155.769043,4611.282227,4537.307617,4453.205078,4614.615234,2573.000000,4.000000,98.000000,,,,0.000000,4.000000,4.000000,4.000000,4.000000,4.000000,4.000000,4.000000,0.000000,4.000000,4.000000,4.000000,4.000000,4.000000,4.000000,66.666664,,,,,,,,,,,,,,,,,,,,,,,,,,,,
1638094775.475458,75.000000,0.000000,4221.794922,4204.743652,4207.820313,4276.922852,4254.487305,4176.153809,4083.589844,4471.538574,4284.871582,4168.589844,4607.436035,4552.051270,4463.589844,4628.077148,2660.000000,4.000000,98.000000,,,,0.000000,4.000000,4.000000,4.000000,4.000000,4.000000,4.000000,4.000000,0.000000,4.000000,4.000000,4.000000,4.000000,4.000000,4.000000,66.666664,,,,,,,,,,,,,,,,,,,,,,,,,,,,
1638094775.483366,76.000000,0.000000,4233.974121,4225.000000,4216.282227,4299.743652,4276.025879,4172.051270,4081.281982,4471.794922,4275.000000,4178.717773,4621.666504,4566.922852,4467.051270,4640.769043,2291.000000,4.000000,98.000000,,,,0.000000,4.000000,4.000000,4.000000,4.000000,4.000000,4.000000,4.000000,0.000000,4.000000,4.000000,4.000000,4.000000,4.000000,4.000000,66.666664,,,,,,,,,,,,,,,,,19.000000,0.000000,0.269305,0.630371,-0.287720,0.668823,0.978635,-0.045416,0.040044,-45.282063,-2.032153,-25.034880
1638094775.491174,77.000000,0.000000,4223.461426,4232.692383,4221.410156,4296.025879,4280.128418,4179.358887,4100.769043,4476.922852,4274.871582,4188.974121,4620.641113,4568.333496,4466.410156,4642.692383,2406.000000,4.000000,98.000000,,,,0.000000,4.000000,4.000000,4.000000,4.000000,4.000000,4.000000,4.000000,0.000000,4.000000,4.000000,4.000000,4.000000,4.000000,4.000000,66.666664,,,,,,,,,,,,,,,,,,,,,,,,,,,,
1638094775.499082,78.000000,0.000000,4206.922852,4223.589844,4233.333496,4284.230957,4280.000000,4196.666504,4137.820313,4474.743652,4279.743652,4192.692383,4609.487305,4563.589844,4467.948730,4634.487305,2573.000000,4.000000,98.000000,,,,0.000000,4.000000,4.000000,4.000000,4.000000,4.000000,4.000000,4.000000,0.000000,4.000000,4.000000,4.000000,4.000000,4.000000,4.000000,66.666664,,,,,,,,,,,,,,,,,,,,,,,,,,,,
1638094775.506891,79.000000,0.000000,4191.025879,4206.794922,4233.589844,4283.077148,4281.410156,4207.179688,4159.487305,4472.563965,4268.974121,4178.077148,4600.000000,4557.820313,4457.692383,4619.487305,2660.000000,4.000000,98.000000,,,,0.000000,4.000000,4.000000,4.000000,4.000000,4.000000,4.000000,4.000000,0.000000,4.000000,4.000000,4.000000,4.000000,4.000000,4.000000,66.666664,,,,,,,,,,,,,,,,,,,,,,,,,,,,
1638094775.514599,80.000000,0.000000,4170.384766,4200.641113,4221.666504,4287.563965,4280.512695,4210.512695,4156.538574,4477.563965,4243.717773,4161.538574,4582.307617,4553.846191,4434.871582,4606.025879,2291.000000,4.000000,98.000000,,,,0.000000,4.000000,4.000000,4.000000,4.000000,4.000000,4.000000,4.000000,0.000000,4.000000,4.000000,4.000000,4.000000,4.000000,4.000000,66.666664,,,,,,,,,,,,,,,,,20.000000,0.000000,0.269109,0.630371,-0.287903,0.668823,0.991820,-0.053229,0.032719,-45.437191,-2.045604,-24.914724
1638094775.522407,81.000000,0.000000,4160.256348,4203.077148,4226.794922,4284.230957,4279.743652,4210.512695,4144.743652,4474.615234,4233.974121,4153.205078,4571.153809,4561.922852,4430.512695,4608.846191,2406.000000,4.000000,98.000000,,,,0.000000,4.000000,4.000000,4.000000,4.000000,4.000000,4.000000,4.000000,0.000000,4.000000,4.000000,4.000000,4.000000,4.000000,4.000000,66.666664,,,,,,,,,,,,,,,,,,,,,,,,,,,,
1638094775.530315,82.000000,0.000000,4159.871582,4200.384766,4234.615234,4270.128418,4279.615234,4202.820313,4137.820313,4469.615234,4231.153809,4154.358887,4580.128418,4568.461426,4441.025879,4616.410156,2573.000000,4.000000,98.000000,,,,0.000000,4.000000,4.000000,4.000000,4.000000,4.000000,4.000000,4.000000,0.000000,4.000000,4.000000,4.000000,4.000000,4.000000,4.000000,66.666664,,,,,,,,,,,,,,,,,,,,,,,,,,,,
1638094775.538123,83.000000,0.000000,4156.922852,4206.538574,4222.563965,4276.282227,4279.615234,4203.717773,4140.000000,4475.128418,4224.743652,4168.589844,4579.230957,4561.025879,4442.820313,4612.820313,2660.000000,4.000000,98.000000,,,,0.000000,4.000000,4.000000,4.000000,4.000000,4.000000,4.000000,4.000000,0.000000,4.000000,4.000000,4.000000,4.000000,4.000000,4.000000,66.666664,,,,,,,,,,,,,,,,,,,,,,,,,,,,
1638094775.545832,84.000000,0.000000,4151.025879,4220.641113,4212.436035,4297.820313,4281.153809,4203.846191,4128.846191,4477.436035,4218.077148,4174.102539,4557.179688,4553.077148,4441.153809,4611.282227,2291.000000,4.000000,98.000000,,,,0.000000,4.000000,4.000000,4.000000,4.000000,4.000000,4.000000,4.000000,0.000000,4.000000,4.000000,4.000000,4.000000,4.000000,4.000000,66.666664,,,,,,,,,,,,,,,,,21.000000,0.000000,0.269014,0.630310,-0.287842,0.668945,0.991820,-0.053229,0.033696,-45.576805,-2.174377,-24.806585
1638094775.553640,85.000000,0.000000,4166.794922,4220.897461,4222.563965,4287.307617,4280.512695,4188.333496,4103.974121,4473.717773,4202.820313,4164.615234,4559.871582,4558.589844,4450.256348,4621.153809,2406.000000,4.000000,98.000000,,,,0.000000,4.000000,4.000000,4.000000,4.000000,4.000000,4.000000,4.000000,0.000000,4.000000,4.000000,4.000000,4.000000,4.000000,4.000000,66.666664,,,,,,,,,,,,,,,,,,,,,,,,,,,,
1638094775.561348,86.000000,0.000000,4238.461426,4215.641113,4237.820313,4270.641113,4278.846191,4179.615234,4100.512695,4474.615234,4190.641113,4169.743652,4583.974121,4570.000000,4461.282227,4628.589844,2573.000000,4.000000,98.000000,,,,0.000000,4.000000,4.000000,4.000000,4.000000,4.000000,4.000000,4.000000,0.000000,4.000000,4.000000,4.000000,4.000000,4.000000,4.000000,66.666664,,,,,,,,,,,,,,,,,,,,,,,,,,,,
1638094775.569256,87.000000,0.000000,4337.436035,4214.615234,4233.974121,4283.205078,4273.717773,4185.000000,4117.051270,4476.922852,4195.384766,4185.641113,4581.282227,4567.051270,4460.641113,4625.128418,2660.000000,4.000000,98.000000,,,,0.000000,4.000000,4.000000,4.000000,4.000000,4.000000,4.000000,4.000000,0.000000,4.000000,4.000000,4.000000,4.000000,4.000000,4.000000,66.666664,,,,,,,,,,,,,,,,,,,,,,,,,,,,
1638094775.577065,88.000000,0.000000,4405.128418,4210.000000,4215.256348,4286.538574,4264.743652,4189.230957,4132.051270,4475.384766,4191.410156,4182.692383,4563.077148,4551.922852,4452.692383,4611.153809,2291.000000,4.000000,98.000000,,,,0.000000,4.000000,4.000000,4.000000,4.000000,4.000000,4.000000,4.000000,0.000000,4.000000,4.000000,4.000000,4.000000,4.000000,4.000000,66.666664,,,,,,,,,,,,,,,,,22.000000,0.000000,0.268588,0.630371,-0.287964,0.669006,0.972775,-0.056159,0.040532,-45.335793,-2.206939,-24.709259
1638094775.584873,89.000000,0.000000,4463.461426,4195.256348,4196.153809,4266.794922,4263.717773,4191.794922,4138.077148,4472.820313,4157.820313,4160.897461,4549.230957,4540.769043,4438.717773,4586.922852,2406.000000,4.000000,98.000000,,,,0.000000,4.000000,4.000000,4.000000,4.000000,4.000000,4.000000,4.000000,0.000000,4.000000,4.000000,4.000000,4.000000,4.000000,4.000000,66.666664,,,,,,,,,,,,,,,,,,,,,,,,,,,,
1638094775.592581,90.000000,0.000000,4525.769043,4183.077148,4191.666504,4266.666504,4272.820313,4195.769043,4141.666504,4473.461426,4131.538574,4145.128418,4531.922852,4539.102539,4419.615234,4575.512695,2573.000000,4.000000,98.000000,,,,0.000000,4.000000,4.000000,4.000000,4.000000,4.000000,4.000000,4.000000,0.000000,4.000000,4.000000,4.000000,4.000000,4.000000,4.000000,66.666664,,,,,,,,,,,,,,,,,,,,,,,,,,,,
1638094775.600489,91.000000,0.000000,4529.871582,4192.563965,4213.333496,4286.282227,4281.794922,4207.436035,4159.230957,4474.230957,4139.615234,4151.025879,4531.025879,4554.743652,4421.282227,4597.948730,2660.000000,4.000000,98.000000,,,,0.000000,4.000000,4.000000,4.000000,4.000000,4.000000,4.000000,4.000000,0.000000,4.000000,4.000000,4.000000,4.000000,4.000000,4.000000,66.666664,,,,,,,,,,,,,,,,,,,,,,,,,,,,
1638094775.608297,92.000000,0.000000,4469.743652,4212.820313,4238.461426,4294.743652,4283.974121,4216.153809,4172.948730,4472.948730,4149.487305,4165.384766,4553.461426,4573.077148,4447.948730,4622.307617,2291.000000,4.000000,98.000000,,,,0.000000,4.000000,4.000000,4.000000,4.000000,4.000000,4.000000,4.000000,0.000000,4.000000,4.000000,4.000000,4.000000,4.000000,4.000000,66.666664,,,,,,,,,,,,,,,,,23.000000,0.000000,0.268269,0.630432,-0.288269,0.668945,0.979612,-0.047857,0.030277,-45.335545,-2.152912,-24.821667
1638094775.616206,93.000000,0.000000,4409.358887,4216.794922,4237.820313,4284.743652,4277.692383,4206.410156,4160.384766,4472.820313,4140.512695,4167.179688,4558.846191,4568.333496,4459.743652,4615.000000,2406.000000,4.000000,98.000000,,,,0.000000,4.000000,4.000000,4.000000,4.000000,4.000000,4.000000,4.000000,0.000000,4.000000,4.000000,4.000000,4.000000,4.000000,4.000000,66.666664,,,,,,,,,,,,,,,,,,,,,,,,,,,,
1638094775.624014,94.000000,0.000000,4382.051270,4211.538574,4231.922852,4285.897461,4276.794922,4197.563965,4154.487305,4474.230957,4132.820313,4170.384766,4557.307617,4558.974121,4458.461426,4615.641113,2573.000000,4.000000,98.000000,,,,0.000000,4.000000,4.000000,4.000000,4.000000,4.000000,4.000000,4.000000,0.000000,4.000000,4.000000,4.000000,4.000000,4.000000,4.000000,66.666664,,,,,,,,,,,,,,,,,,,,,,,,,,,,
1638094775.631922,95.000000,0.000000,4365.256348,4213.333496,4234.358887,4299.487305,4287.179688,4204.871582,4169.102539,4474.615234,4138.974121,4180.512695,4565.769043,4564.358887,4469.615234,4638.077148,2660.000000,4.000000,98.000000,,,,0.000000,4.000000,4.000000,4.000000,4.000000,4.000000,4.000000,4.000000,0.000000,4.000000,4.000000,4.000000,4.000000,4.000000,4.000000,66.666664,,,,,,,,,,,,,,,,,,,,,,,,,,,,
1638094775.639730,96.000000,0.000000,4332.820313,4221.666504,4233.077148,4282.307617,4281.922852,4204.358887,4172.051270,4473.333496,4134.743652,4175.897461,4553.333496,4565.128418,4476.666504,4632.820313,2291.000000,4.000000,98.000000,,,,0.000000,4.000000,4.000000,4.000000,4.000000,4.000000,4.000000,4.000000,0.000000,4.000000,4.000000,4.000000,4.000000,4.000000,4.000000,66.666664,1.000000,0.000000,1.000000,4.000000,1.000000,4.000000,4.000000,4.000000,3.000000,0.000000,0.000000,4.000000,0.000000,4.000000,4.000000,4.000000,24.000000,0.000000,0.268469,0.630615,-0.288391,0.668640,0.972287,-0.045904,0.035161,-45.201992,-1.987621,-24.806168
1638094775.647638,97.000000,0.000000,4301.282227,4230.256348,4231.538574,4265.641113,4266.410156,4198.205078,4171.538574,4473.846191,4123.846191,4164.230957,4545.000000,4563.205078,4473.846191,4614.358887,2406.000000,4.000000,98.000000,,,,0.000000,4.000000,4.000000,4.000000,4.000000,4.000000,4.000000,4.000000,0.000000,4.000000,4.000000,4.000000,4.000000,4.000000,4.000000,66.666664,,,,,,,,,,,,,,,,,,,,,,,,,,,,
1638094775.655446,98.000000,0.000000,4281.025879,4223.974121,4217.307617,4284.871582,4272.948730,4198.333496,4170.256348,4474.230957,4118.974121,4163.205078,4550.384766,4553.974121,4468.974121,4612.051270,2573.000000,4.000000,98.000000,,,,0.000000,4.000000,4.000000,4.000000,4.000000,4.000000,4.000000,4.000000,0.000000,4.000000,4.000000,4.000000,4.000000,4.000000,4.000000,66.666664,,,,,,,,,,,,,,,,,,,,,,,,,,,,
1638094775.663354,99.000000,0.000000,4260.769043,4211.922852,4196.538574,4286.794922,4282.948730,4190.000000,4154.487305,4472.179688,4110.384766,4160.769043,4532.436035,4530.897461,4459.230957,4608.333496,2660.000000,4.000000,98.000000,,,,0.000000,4.000000,4.000000,4.000000,4.000000,4.000000,4.000000,4.000000,0.000000,4.000000,4.000000,4.000000,4.000000,4.000000,4.000000,66.666664,,,,,,,,,,,,,,,,,,,,,,,,,,,,
1638094775.671163,100.000000,0.000000,4261.025879,4232.820313,4205.384766,4274.358887,4275.641113,4182.820313,4145.000000,4471.410156,4101.666504,4157.436035,4522.948730,4533.205078,4472.051270,4617.820313,2291.000000,4.000000,98.000000,,,,0.000000,4.000000,4.000000,4.000000,4.000000,4.000000,4.000000,4.000000,0.000000,4.000000,4.000000,4.000000,4.000000,4.000000,4.000000,66.666664,,,,,,,,,,,,,,,,,25.000000,0.000000,0.268707,0.630615,-0.288452,0.668518,0.973752,-0.040044,0.035161,-45.298458,-1.922192,-24.942217
1638094775.679071,101.000000,0.000000,4282.307617,4267.307617,4219.615234,4295.256348,4270.512695,4182.948730,4141.282227,4473.333496,4092.820557,4163.461426,4547.436035,4558.077148,4509.743652,4649.743652,2406.000000,4.000000,98.000000,,,,0.000000,4.000000,4.000000,4.000000,4.000000,4.000000,4.000000,4.000000,0.000000,4.000000,4.000000,4.000000,4.000000,4.000000,4.000000,66.666664,,,,,,,,,,,,,,,,,,,,,,,,,,,,
1638094775.686879,102.000000,0.000000,4299.358887,4292.820313,4221.410156,4324.102539,4277.179688,4184.743652,4134.487305,4473.461426,4087.564209,4171.666504,4564.743652,4565.641113,4531.538574,4678.461426,2573.000000,4.000000,98.000000,,,,0.000000,4.000000,4.000000,4.000000,4.000000,4.000000,4.000000,4.000000,0.000000,4.000000,4.000000,4.000000,4.000000,4.000000,4.000000,66.666664,,,,,,,,,,,,,,,,,,,,,,,,,,,,
1638094775.694687,103.000000,0.000000,4331.538574,4330.128418,4246.282227,4319.358887,4286.025879,4196.410156,4145.512695,4470.128418,4099.487305,4180.384766,4575.512695,4576.282227,4553.846191,4715.897461,2660.000000,4.000000,98.000000,,,,0.000000,4.000000,4.000000,4.000000,4.000000,4.000000,4.000000,4.000000,0.000000,4.000000,4.000000,4.000000,4.000000,4.000000,4.000000,66.666664,,,,,,,,,,,,,,,,,,,,,,,,,,,,
1638094775.702495,104.000000,0.000000,4373.205078,4362.307617,4280.512695,4317.179688,4285.256348,4203.461426,4161.410156,4469.358887,4111.922852,4191.153809,4598.846191,4600.897461,4596.153809,4763.717773,2291.000000,4.000000,98.000000,,,,0.000000,4.000000,4.000000,4.000000,4.000000,4.000000,4.000000,4.000000,0.000000,4.000000,4.000000,4.000000,4.000000,4.000000,4.000000,66.666664,,,,,,,,,,,,,,,,,26.000000,0.000000,0.269182,0.630737,-0.288025,0.668396,0.964962,-0.050787,0.029789,-45.301945,-1.829973,-24.914661
1638094775.710204,105.000000,0.000000,4378.077148,4360.256348,4283.077148,4335.000000,4280.641113,4195.512695,4154.615234,4472.179688,4102.948730,4196.153809,4605.769043,4603.461426,4612.051270,4778.717773,2406.000000,4.000000,98.000000,,,,0.000000,4.000000,4.000000,4.000000,4.000000,4.000000,4.000000,4.000000,0.000000,4.000000,4.000000,4.000000,4.000000,4.000000,4.000000,66.666664,,,,,,,,,,,,,,,,,,,,,,,,,,,,
1638094775.718012,106.000000,0.000000,4357.820313,4344.743652,4273.077148,4330.384766,4286.282227,4195.128418,4148.974121,4473.333496,4085.512939,4193.589844,4591.410156,4587.051270,4595.256348,4765.128418,2573.000000,4.000000,98.000000,,,,0.000000,4.000000,4.000000,4.000000,4.000000,4.000000,4.000000,4.000000,0.000000,4.000000,4.000000,4.000000,4.000000,4.000000,4.000000,66.666664,,,,,,,,,,,,,,,,,,,,,,,,,,,,
1638094775.725720,107.000000,0.000000,4353.077148,4355.897461,4275.384766,4312.948730,4294.743652,4206.666504,4166.794922,4472.051270,4078.846191,4190.769043,4587.179688,4581.410156,4597.307617,4764.487305,2660.000000,4.000000,98.000000,,,,0.000000,4.000000,4.000000,4.000000,4.000000,4.000000,4.000000,4.000000,0.000000,4.000000,4.000000,4.000000,4.000000,4.000000,4.000000,66.666664,,,,,,,,,,,,,,,,,,,,,,,,,,,,
1638094775.733528,108.000000,0.000000,4356.538574,4372.820313,4281.538574,4330.256348,4293.333496,4205.769043,4182.051270,4472.563965,4081.153809,4182.179688,4596.153809,4586.538574,4614.871582,4775.769043,2291.000000,4.000000,98.000000,,,,0.000000,4.000000,4.000000,4.000000,4.000000,4.000000,4.000000,4.000000,0.000000,4.000000,4.000000,4.000000,4.000000,4.000000,4.000000,66.666664,,,,,,,,,,,,,,,,,27.000000,0.000000,0.269642,0.630615,-0.287720,0.668457,0.993774,-0.052252,0.033696,-45.238419,-1.796976,-25.073196
1638094775.741237,109.000000,0.000000,4341.666504,4355.512695,4276.538574,4354.358887,4293.717773,4198.461426,4177.436035,4473.205078,4083.846191,4171.794922,4589.230957,4588.589844,4612.820313,4770.128418,2406.000000,4.000000,98.000000,,,,0.000000,4.000000,4.000000,4.000000,4.000000,4.000000,4.000000,4.000000,0.000000,4.000000,4.000000,4.000000,4.000000,4.000000,4.000000,66.666664,,,,,,,,,,,,,,,,,,,,,,,,,,,,
1638094775.749145,110.000000,0.000000,4323.077148,4336.794922,4272.179688,4333.974121,4299.615234,4200.256348,4163.589844,4470.256348,4077.307617,4177.820313,4579.358887,4591.538574,4607.948730,4765.000000,2573.000000,4.000000,98.000000,,,,0.000000,4.000000,4.000000,4.000000,4.000000,4.000000,4.000000,4.000000,0.000000,4.000000,4.000000,4.000000,4.000000,4.000000,4.000000,66.666664,,,,,,,,,,,,,,,,,,,,,,,,,,,,
1638094775.756953,111.000000,0.000000,4333.846191,4351.025879,4292.948730,4322.307617,4291.025879,4201.538574,4158.205078,4467.436035,4066.410156,4182.436035,4597.563965,4604.230957,4616.794922,4787.820313,2660.000000,4.000000,98.000000,,,,0.000000,4.000000,4.000000,4.000000,4.000000,4.000000,4.000000,4.000000,0.000000,4.000000,4.000000,4.000000,4.000000,4.000000,4.000000,66.666664,,,,,,,,,,,,,,,,,,,,,,,,,,,,
1638094775.764861,112.000000,0.000000,4352.307617,4368.846191,4307.563965,4341.282227,4279.487305,4200.000000,4153.077148,4467.820313,4083.205078,4176.410156,4611.025879,4609.230957,4620.641113,4803.846191,2291.000000,4.000000,98.000000,,,,0.000000,4.000000,4.000000,4.000000,4.000000,4.000000,4.000000,4.000000,0.000000,4.000000,4.000000,4.000000,4.000000,4.000000,4.000000,66.666664,,,,,,,,,,,,,,,,,28.000000,0.000000,0.269776,0.630493,-0.287720,0.668518,0.980100,-0.047369,0.030765,-45.264576,-1.733945,-25.099209
1638094775.772669,113.000000,0.000000,4343.974121,4376.410156,4285.512695,4338.205078,4292.820313,4202.692383,4142.179688,4469.102539,4118.205078,4189.871582,4600.384766,4597.051270,4626.666504,4797.820313,2406.000000,4.000000,98.000000,,,,0.000000,4.000000,4.000000,4.000000,4.000000,4.000000,4.000000,4.000000,0.000000,4.000000,4.000000,4.000000,4.000000,4.000000,4.000000,66.666664,,,,,,,,,,,,,,,,,,,,,,,,,,,,
1638094775.780577,114.000000,0.000000,4336.794922,4383.205078,4268.589844,4324.743652,4307.563965,4203.077148,4135.000000,4467.820313,4117.948730,4212.820313,4601.538574,4591.282227,4643.461426,4806.922852,2573.000000,4.000000,98.000000,,,,0.000000,4.000000,4.000000,4.000000,4.000000,4.000000,4.000000,4.000000,0.000000,4.000000,4.000000,4.000000,4.000000,4.000000,4.000000,66.666664,,,,,,,,,,,,,,,,,,,,,,,,,,,,
1638094775.788386,115.000000,0.000000,4345.512695,4374.358887,4287.307617,4333.077148,4300.641113,4196.666504,4136.666504,4467.948730,4089.871826,4207.307617,4606.153809,4595.897461,4643.461426,4818.717773,2660.000000,4.000000,98.000000,,,,0.000000,4.000000,4.000000,4.000000,4.000000,4.000000,4.000000,4.000000,0.000000,4.000000,4.000000,4.000000,4.000000,4.000000,4.000000,66.666664,,,,,,,,,,,,,,,,,,,,,,,,,,,,
1638094775.796294,116.000000,0.000000,4339.358887,4369.230957,4300.256348,4348.974121,4294.102539,4200.769043,4149.487305,4469.358887,4077.051270,4186.153809,4587.051270,4592.948730,4619.102539,4799.487305,2291.000000,4.000000,98.000000,,,,0.000000,4.000000,4.000000,4.000000,4.000000,4.000000,4.000000,4.000000,0.000000,4.000000,4.000000,4.000000,4.000000,4.000000,4.000000,66.666664,,,,,,,,,,,,,,,,,29.000000,0.000000,0.269773,0.630615,-0.287598,0.668457,0.975705,-0.041021,0.036626,-45.204784,-1.593884,-25.155956
1638094775.804102,117.000000,0.000000,4318.589844,4374.487305,4283.846191,4346.666504,4306.538574,4209.230957,4159.102539,4467.563965,4073.076904,4174.358887,4569.615234,4582.692383,4602.307617,4780.769043,2406.000000,4.000000,98.000000,,,,0.000000,4.000000,4.000000,4.000000,4.000000,4.000000,4.000000,4.000000,0.000000,4.000000,4.000000,4.000000,4.000000,4.000000,4.000000,66.666664,,,,,,,,,,,,,,,,,,,,,,,,,,,,
1638094775.812010,118.000000,0.000000,4310.256348,4364.871582,4274.743652,4331.410156,4312.692383,4205.256348,4157.692383,4467.051270,4063.974365,4162.948730,4562.948730,4578.077148,4598.974121,4778.461426,2573.000000,4.000000,98.000000,,,,0.000000,4.000000,4.000000,4.000000,4.000000,4.000000,4.000000,4.000000,0.000000,4.000000,4.000000,4.000000,4.000000,4.000000,4.000000,66.666664,,,,,,,,,,,,,,,,,,,,,,,,,,,,
1638094775.819818,119.000000,0.000000,4307.820313,4348.974121,4280.384766,4324.743652,4298.461426,4200.897461,4154.615234,4470.384766,4066.794922,4162.436035,4562.948730,4577.051270,4595.769043,4771.794922,2660.000000,4.000000,98.000000,,,,0.000000,4.000000,4.000000,4.000000,4.000000,4.000000,4.000000,4.000000,0.000000,4.000000,4.000000,4.000000,4.000000,4.000000,4.000000,66.666664,,,,,,,,,,,,,,,,,,,,,,,,,,,,
1638094775.827726,120.000000,0.000000,4304.102539,4355.000000,4275.641113,4333.589844,4295.769043,4201.922852,4154.615234,4470.897461,4080.641113,4182.692383,4574.615234,4575.384766,4603.717773,4768.846191,2291.000000,4.000000,98.000000,,,,0.000000,4.000000,4.000000,4.000000,4.000000,4.000000,4.000000,4.000000,0.000000,4.000000,4.000000,4.000000,4.000000,4.000000,4.000000,66.666664,,,,,,,,,,,,,,,,,30.000000,0.000000,0.269963,0.630432,-0.287537,0.668579,0.976682,-0.044439,0.027835,-45.300972,-1.417829,-25.190359
1638094775.835535,121.000000,0.000000,4316.922852,4386.025879,4280.641113,4340.256348,4310.128418,4206.282227,4160.256348,4467.436035,4095.769287,4199.871582,4583.717773,4582.563965,4613.974121,4780.769043,2406.000000,4.000000,98.000000,,,,0.000000,4.000000,4.000000,4.000000,4.000000,4.000000,4.000000,4.000000,0.000000,4.000000,4.000000,4.000000,4.000000,4.000000,4.000000,66.666664,,,,,,,,,,,,,,,,,,,,,,,,,,,,
1638094775.843443,122.000000,0.000000,4326.410156,4387.307617,4303.333496,4331.025879,4308.077148,4205.897461,4157.692383,4466.538574,4107.563965,4192.820313,4589.487305,4602.948730,4599.358887,4785.769043,2573.000000,4.000000,98.000000,,,,0.000000,4.000000,4.000000,4.000000,4.000000,4.000000,4.000000,4.000000,0.000000,4.000000,4.000000,4.000000,4.000000,4.000000,4.000000,66.666664,,,,,,,,,,,,,,,,,,,,,,,,,,,,
1638094775.851251,123.000000,0.000000,4313.205078,4351.282227,4300.384766,4324.230957,4300.256348,4191.794922,4138.589844,4470.512695,4101.666504,4182.307617,4599.871582,4612.179688,4596.153809,4781.025879,2660.000000,4.000000,98.000000,,,,0.000000,4.000000,4.000000,4.000000,4.000000,4.000000,4.000000,4.000000,0.000000,4.000000,4.000000,4.000000,4.000000,4.000000,4.000000,66.666664,,,,,,,,,,,,,,,,,,,,,,,,,,,,
1638094775.859159,124.000000,0.000000,4308.461426,4346.794922,4279.743652,4324.102539,4308.333496,4185.384766,4126.025879,4470.769043,4088.205078,4193.461426,4590.512695,4599.487305,4614.102539,4783.077148,2291.000000,4.000000,98.000000,,,,0.000000,4.000000,4.000000,4.000000,4.000000,4.000000,4.000000,4.000000,0.000000,4.000000,4.000000,4.000000,4.000000,4.000000,4.000000,66.666664,,,,,,,,,,,,,,,,,31.000000,0.000000,0.269578,0.630310,-0.287598,0.668823,0.984007,-0.047369,0.044439,-45.187542,-1.392712,-25.271324
1638094775.866967,125.000000,0.000000,4314.102539,4368.461426,4276.153809,4328.717773,4308.077148,4200.384766,4137.563965,4465.128418,4095.897461,4192.179688,4574.487305,4589.871582,4605.512695,4780.384766,2406.000000,4.000000,98.000000,,,,0.000000,4.000000,4.000000,4.000000,4.000000,4.000000,4.000000,4.000000,0.000000,4.000000,4.000000,4.000000,4.000000,4.000000,4.000000,66.666664,,,,,,,,,,,,,,,,,,,,,,,,,,,,
1638094775.874676,126.000000,0.000000,4304.871582,4356.922852,4268.077148,4332.179688,4293.589844,4205.512695,4141.666504,4465.384766,4107.307617,4168.846191,4582.051270,4583.333496,4589.102539,4766.282227,2573.000000,4.000000,98.000000,,,,0.000000,4.000000,4.000000,4.000000,4.000000,4.000000,4.000000,4.000000,0.000000,4.000000,4.000000,4.000000,4.000000,4.000000,4.000000,66.666664,,,,,,,,,,,,,,,,,,,,,,,,,,,,
1638094775.882484,127.000000,0.000000,4310.256348,4356.794922,4265.128418,4327.051270,4302.436035,4197.436035,4132.563965,4469.615234,4097.436035,4177.563965,4581.282227,4578.461426,4592.692383,4769.487305,98.000000,4.000000,98.000000,,,,0.000000,4.000000,4.000000,4.000000,4.000000,4.000000,4.000000,4.000000,0.000000,4.000000,4.000000,4.000000,4.000000,4.000000,4.000000,66.666664,,,,,,,,,,,,,,,,,,,,,,,,,,,,
1638094775.890192,0.000000,0.000000,4337.307617,4385.641113,4296.666504,4335.256348,4317.563965,4205.384766,4139.743652,4467.692383,4077.564209,4201.025879,4566.410156,4593.846191,4571.282227,4785.641113,2717.000000,4.000000,98.000000,,,,0.000000,4.000000,4.000000,4.000000,4.000000,4.000000,4.000000,4.000000,0.000000,4.000000,4.000000,4.000000,4.000000,4.000000,4.000000,66.666664,,,,,,,,,,,,,,,,,0.000000,0.000000,0.269430,0.630188,-0.287720,0.668945,0.984984,-0.061531,0.043951,-45.218788,-1.520108,-25.344191
1638094775.898000,1.000000,0.000000,4340.256348,4381.922852,4321.666504,4352.051270,4314.102539,4221.025879,4153.589844,4464.487305,4074.230713,4192.436035,4576.666504,4613.077148,4537.692383,4784.102539,1883.000000,4.000000,98.000000,,,,0.000000,4.000000,4.000000,4.000000,4.000000,4.000000,4.000000,4.000000,0.000000,4.000000,4.000000,4.000000,4.000000,4.000000,4.000000,66.666664,,,,,,,,,,,,,,,,,,,,,,,,,,,,
1638094775.905709,2.000000,0.000000,4319.871582,4357.051270,4316.922852,4334.615234,4313.333496,4218.077148,4156.666504,4465.512695,4082.307617,4179.230957,4572.820313,4613.333496,4533.077148,4770.000000,2688.000000,4.000000,98.000000,,,,0.000000,4.000000,4.000000,4.000000,4.000000,4.000000,4.000000,4.000000,0.000000,4.000000,4.000000,4.000000,4.000000,4.000000,4.000000,66.666664,,,,,,,,,,,,,,,,,,,,,,,,,,,,
1638094775.913517,3.000000,0.000000,4297.307617,4338.974121,4297.563965,4303.333496,4314.487305,4201.666504,4150.128418,4467.051270,4076.794922,4170.256348,4544.615234,4597.692383,4527.179688,4752.436035,2665.000000,4.000000,98.000000,,,,0.000000,4.000000,4.000000,4.000000,4.000000,4.000000,4.000000,4.000000,0.000000,4.000000,4.000000,4.000000,4.000000,4.000000,4.000000,66.666664,,,,,,,,,,,,,,,,,,,,,,,,,,,,
1638094775.921225,4.000000,0.000000,4286.282227,4331.153809,4275.897461,4316.794922,4313.461426,4200.641113,4147.820313,4467.436035,4075.641113,4170.641113,4563.717773,4586.922852,4519.230957,4736.282227,2087.000000,4.000000,98.000000,,,,0.000000,4.000000,4.000000,4.000000,4.000000,4.000000,4.000000,4.000000,0.000000,4.000000,4.000000,4.000000,4.000000,4.000000,4.000000,66.666664,,,,,,,,,,,,,,,,,1.000000,0.000000,0.269691,0.630188,-0.287476,0.668945,0.982542,-0.056648,0.027347,-45.330242,-1.601430,-25.343105
1638094775.929033,5.000000,0.000000,4285.897461,4328.461426,4268.205078,4327.307617,4310.769043,4208.333496,4150.128418,4468.974121,4093.205078,4202.051270,4594.230957,4587.051270,4529.358887,4727.563965,1912.000000,4.000000,98.000000,,,,0.000000,4.000000,4.000000,4.000000,4.000000,4.000000,4.000000,4.000000,0.000000,4.000000,4.000000,4.000000,4.000000,4.000000,4.000000,66.666664,,,,,,,,,,,,,,,,,,,,,,,,,,,,
1638094775.936742,6.000000,0.000000,4263.589844,4303.974121,4271.282227,4291.794922,4299.871582,4194.487305,4135.128418,4468.974121,4097.051270,4213.205078,4570.512695,4584.615234,4521.538574,4713.974121,2443.000000,4.000000,98.000000,,,,0.000000,4.000000,4.000000,4.000000,4.000000,4.000000,4.000000,4.000000,0.000000,4.000000,4.000000,4.000000,4.000000,4.000000,4.000000,66.666664,,,,,,,,,,,,,,,,,,,,,,,,,,,,
1638094775.944650,7.000000,0.000000,4231.794922,4269.102539,4275.128418,4280.128418,4299.487305,4183.717773,4116.794922,4466.922852,4083.461426,4187.820313,4556.282227,4585.512695,4505.897461,4699.615234,0.000000,4.000000,98.000000,,,,0.000000,4.000000,4.000000,4.000000,4.000000,4.000000,4.000000,4.000000,0.000000,4.000000,4.000000,4.000000,4.000000,4.000000,4.000000,66.666664,,,,,,,,,,,,,,,,,,,,,,,,,,,,
1638094775.952458,8.000000,0.000000,4222.051270,4254.743652,4277.307617,4286.794922,4314.102539,4201.153809,4121.282227,4465.384766,4076.410156,4183.846191,4570.641113,4591.538574,4505.384766,4688.077148,2214.000000,4.000000,98.000000,,,,0.000000,4.000000,4.000000,4.000000,4.000000,4.000000,4.000000,4.000000,0.000000,4.000000,4.000000,4.000000,4.000000,4.000000,4.000000,66.666664,,,,,,,,,,,,,,,,,2.000000,0.000000,0.269743,0.630249,-0.287292,0.668945,0.985472,-0.051276,0.032719,-45.347218,-1.507954,-25.175461
1638094775.960266,9.000000,0.000000,4196.025879,4241.410156,4251.153809,4268.077148,4314.358887,4207.692383,4124.230957,4463.717773,4070.897461,4188.974121,4557.563965,4568.717773,4485.641113,4653.461426,3109.000000,4.000000,98.000000,,,,0.000000,4.000000,4.000000,4.000000,4.000000,4.000000,4.000000,4.000000,0.000000,4.000000,4.000000,4.000000,4.000000,4.000000,4.000000,66.666664,,,,,,,,,,,,,,,,,,,,,,,,,,,,
1638094775.967974,10.000000,0.000000,4146.794922,4204.102539,4202.820313,4255.512695,4294.102539,4186.666504,4097.307617,4465.384766,4063.333252,4167.692383,4529.871582,4527.820313,4445.256348,4600.769043,2585.000000,4.000000,98.000000,,,,0.000000,4.000000,4.000000,4.000000,4.000000,4.000000,4.000000,4.000000,0.000000,4.000000,4.000000,4.000000,4.000000,4.000000,4.000000,66.666664,,,,,,,,,,,,,,,,,,,,,,,,,,,,
1638094775.975883,11.000000,0.000000,4137.436035,4183.846191,4199.102539,4255.512695,4287.307617,4176.410156,4079.230713,4467.436035,4080.769287,4155.128418,4516.153809,4526.538574,4429.615234,4580.384766,2660.000000,4.000000,98.000000,,,,0.000000,4.000000,4.000000,4.000000,4.000000,4.000000,4.000000,4.000000,0.000000,4.000000,4.000000,4.000000,4.000000,4.000000,4.000000,66.666664,,,,,,,,,,,,,,,,,,,,,,,,,,,,
1638094775.983691,12.000000,0.000000,4156.538574,4188.846191,4233.333496,4256.666504,4297.820313,4189.871582,4104.615234,4465.769043,4108.205078,4163.333496,4513.333496,4550.512695,4429.230957,4587.692383,2292.000000,4.000000,98.000000,,,,0.000000,4.000000,4.000000,4.000000,4.000000,4.000000,4.000000,4.000000,0.000000,4.000000,4.000000,4.000000,4.000000,4.000000,4.000000,66.666664,,,,,,,,,,,,,,,,,3.000000,0.000000,0.270323,0.630371,-0.287048,0.668701,0.971310,-0.050787,0.032719,-45.429165,-1.457159,-25.157915
1638094775.991599,13.000000,0.000000,4158.589844,4178.461426,4238.717773,4259.487305,4303.589844,4209.358887,4146.025879,4465.000000,4106.794922,4164.102539,4517.692383,4550.128418,4411.410156,4578.077148,2413.000000,4.000000,98.000000,,,,0.000000,4.000000,4.000000,4.000000,4.000000,4.000000,4.000000,4.000000,0.000000,4.000000,4.000000,4.000000,4.000000,4.000000,4.000000,66.666664,,,,,,,,,,,,,,,,,,,,,,,,,,,,
1638094775.999407,14.000000,0.000000,4165.897461,4149.743652,4224.230957,4253.333496,4295.769043,4220.384766,4174.743652,4466.410156,4081.153809,4153.077148,4511.410156,4536.538574,4389.102539,4551.282227,2585.000000,4.000000,98.000000,,,,0.000000,4.000000,4.000000,4.000000,4.000000,4.000000,4.000000,4.000000,0.000000,4.000000,4.000000,4.000000,4.000000,4.000000,4.000000,66.666664,,,,,,,,,,,,,,,,,,,,,,,,,,,,
