title:yuval2, start timestamp:1638094143.767413, stop timestamp:1638094216.335315, headset type:EPOCX, headset serial:E20205C4, headset firmware:710, channels:67, sampling rate:eeg_128;mot_32, samples:9295      , version:2.1, 
Timestamp,EEG.Counter,EEG.Interpolated,EEG.AF3,EEG.F7,EEG.F3,EEG.FC5,EEG.T7,EEG.P7,EEG.O1,EEG.O2,EEG.P8,EEG.T8,EEG.FC6,EEG.F4,EEG.F8,EEG.AF4,EEG.RawCq,EEG.Battery,EEG.BatteryPercent,MarkerIndex,MarkerType,MarkerValueInt,EEG.MarkerHardware,CQ.AF3,CQ.F7,CQ.F3,CQ.FC5,CQ.T7,CQ.P7,CQ.O1,CQ.O2,CQ.P8,CQ.T8,CQ.FC6,CQ.F4,CQ.F8,CQ.AF4,CQ.Overall,EQ.SampleRateQuality,EQ.OVERALL,EQ.AF3,EQ.F7,EQ.F3,EQ.FC5,EQ.T7,EQ.P7,EQ.O1,EQ.O2,EQ.P8,EQ.T8,EQ.FC6,EQ.F4,EQ.F8,EQ.AF4,MOT.CounterMems,MOT.InterpolatedMems,MOT.Q0,MOT.Q1,MOT.Q2,MOT.Q3,MOT.AccX,MOT.AccY,MOT.AccZ,MOT.MagX,MOT.MagY,MOT.MagZ
1638094143.767413,67.000000,0.000000,4358.077148,4373.333496,4386.410156,4368.077148,4378.974121,4337.051270,4315.512695,4326.410156,4311.666504,4294.358887,4596.282227,4485.384766,4431.538574,4513.333496,2441.000000,4.000000,100.000000,,,,0.000000,4.000000,4.000000,4.000000,4.000000,4.000000,4.000000,4.000000,4.000000,4.000000,4.000000,4.000000,4.000000,4.000000,4.000000,100.000000,,,,,,,,,,,,,,,,,,,,,,,,,,,,
1638094143.775321,68.000000,0.000000,4374.230957,4378.461426,4396.666504,4382.179688,4395.000000,4342.692383,4319.230957,4337.563965,4327.563965,4306.025879,4611.410156,4508.974121,4446.025879,4532.948730,2302.000000,4.000000,100.000000,,,,0.000000,4.000000,4.000000,4.000000,4.000000,4.000000,4.000000,4.000000,4.000000,4.000000,4.000000,4.000000,4.000000,4.000000,4.000000,100.000000,,,,,,,,,,,,,,,,,17.000000,0.000000,0.149839,-0.717224,0.020386,-0.680237,0.951776,-0.230497,-0.031254,-36.067661,-15.097047,-11.477929
1638094143.783130,69.000000,0.000000,4383.205078,4389.615234,4401.538574,4385.256348,4398.077148,4336.794922,4316.922852,4344.358887,4337.948730,4312.563965,4617.692383,4515.512695,4449.871582,4542.307617,2284.000000,4.000000,100.000000,,,,0.000000,4.000000,4.000000,4.000000,4.000000,4.000000,4.000000,4.000000,4.000000,4.000000,4.000000,4.000000,4.000000,4.000000,4.000000,100.000000,,,,,,,,,,,,,,,,,,,,,,,,,,,,
1638094143.790838,70.000000,0.000000,4375.769043,4397.563965,4395.128418,4380.769043,4400.641113,4331.282227,4312.692383,4342.436035,4333.205078,4311.153809,4614.230957,4508.461426,4444.615234,4532.948730,2284.000000,4.000000,100.000000,,,,0.000000,4.000000,4.000000,4.000000,4.000000,4.000000,4.000000,4.000000,4.000000,4.000000,4.000000,4.000000,4.000000,4.000000,4.000000,100.000000,,,,,,,,,,,,,,,,,,,,,,,,,,,,
1638094143.798646,71.000000,0.000000,4368.846191,4390.128418,4384.487305,4381.794922,4407.051270,4335.897461,4315.256348,4338.717773,4329.102539,4302.563965,4606.794922,4505.512695,4444.358887,4525.769043,2311.000000,4.000000,100.000000,,,,0.000000,4.000000,4.000000,4.000000,4.000000,4.000000,4.000000,4.000000,4.000000,4.000000,4.000000,4.000000,4.000000,4.000000,4.000000,100.000000,,,,,,,,,,,,,,,,,,,,,,,,,,,,
1638094143.806354,72.000000,0.000000,4369.743652,4379.743652,4376.666504,4379.102539,4399.871582,4337.307617,4318.717773,4338.461426,4329.487305,4299.871582,4603.589844,4500.000000,4444.102539,4525.384766,2399.000000,4.000000,100.000000,,,,0.000000,4.000000,4.000000,4.000000,4.000000,4.000000,4.000000,4.000000,4.000000,4.000000,4.000000,4.000000,4.000000,4.000000,4.000000,100.000000,,,,,,,,,,,,,,,,,18.000000,0.000000,0.149808,-0.717285,0.020508,-0.680176,0.963008,-0.233915,-0.032719,-35.977562,-15.104009,-11.396803
1638094143.814163,73.000000,0.000000,4363.974121,4379.358887,4371.538574,4371.410156,4391.666504,4337.563965,4328.846191,4334.358887,4327.179688,4302.179688,4600.769043,4490.384766,4435.512695,4516.666504,2371.000000,4.000000,100.000000,,,,0.000000,4.000000,4.000000,4.000000,4.000000,4.000000,4.000000,4.000000,4.000000,4.000000,4.000000,4.000000,4.000000,4.000000,4.000000,100.000000,,,,,,,,,,,,,,,,,,,,,,,,,,,,
1638094143.821871,74.000000,0.000000,4355.641113,4380.897461,4365.384766,4371.922852,4397.051270,4342.692383,4373.717773,4326.794922,4324.230957,4301.922852,4591.410156,4487.692383,4425.512695,4505.000000,2653.000000,4.000000,100.000000,,,,0.000000,4.000000,4.000000,4.000000,4.000000,4.000000,4.000000,4.000000,4.000000,4.000000,4.000000,4.000000,4.000000,4.000000,4.000000,100.000000,,,,,,,,,,,,,,,,,,,,,,,,,,,,
1638094143.829679,75.000000,0.000000,4360.512695,4381.025879,4366.794922,4380.000000,4400.769043,4343.846191,4437.436035,4329.358887,4324.871582,4300.641113,4587.436035,4489.230957,4428.333496,4510.641113,2828.000000,4.000000,100.000000,,,,0.000000,4.000000,4.000000,4.000000,4.000000,4.000000,4.000000,4.000000,4.000000,4.000000,4.000000,4.000000,4.000000,4.000000,4.000000,100.000000,,,,,,,,,,,,,,,,,,,,,,,,,,,,
1638094143.837387,76.000000,0.000000,4368.461426,4384.615234,4373.077148,4383.205078,4401.153809,4342.179688,4453.205078,4335.512695,4327.307617,4302.692383,4598.205078,4492.436035,4437.692383,4519.615234,3106.000000,4.000000,100.000000,,,,0.000000,4.000000,4.000000,4.000000,4.000000,4.000000,4.000000,4.000000,4.000000,4.000000,4.000000,4.000000,4.000000,4.000000,4.000000,100.000000,,,,,,,,,,,,,,,,,19.000000,0.000000,0.149801,-0.717346,0.020447,-0.680115,0.959101,-0.231474,-0.024905,-35.946472,-14.926942,-11.340456
1638094143.845196,77.000000,0.000000,4366.282227,4381.153809,4367.179688,4378.205078,4409.102539,4343.333496,4416.666504,4330.384766,4327.563965,4305.769043,4598.846191,4492.436035,4438.589844,4511.282227,3491.000000,4.000000,100.000000,,,,0.000000,4.000000,4.000000,4.000000,4.000000,4.000000,4.000000,4.000000,4.000000,4.000000,4.000000,4.000000,4.000000,4.000000,4.000000,100.000000,,,,,,,,,,,,,,,,,,,,,,,,,,,,
1638094143.852904,78.000000,0.000000,4364.871582,4379.487305,4363.461426,4376.922852,4413.846191,4343.589844,4389.358887,4324.230957,4328.461426,4309.615234,4593.974121,4489.743652,4438.333496,4510.384766,2653.000000,4.000000,100.000000,,,,0.000000,4.000000,4.000000,4.000000,4.000000,4.000000,4.000000,4.000000,4.000000,4.000000,4.000000,4.000000,4.000000,4.000000,4.000000,100.000000,,,,,,,,,,,,,,,,,,,,,,,,,,,,
1638094143.860712,79.000000,0.000000,4372.820313,4390.000000,4371.794922,4384.871582,4412.051270,4346.666504,4387.051270,4326.410156,4334.230957,4312.692383,4603.077148,4493.461426,4443.846191,4523.461426,2828.000000,4.000000,100.000000,,,,0.000000,4.000000,4.000000,4.000000,4.000000,4.000000,4.000000,4.000000,4.000000,4.000000,4.000000,4.000000,4.000000,4.000000,4.000000,100.000000,,,,,,,,,,,,,,,,,,,,,,,,,,,,
1638094143.868420,80.000000,0.000000,4379.230957,4395.384766,4376.794922,4391.410156,4414.358887,4349.871582,4386.153809,4328.589844,4336.666504,4312.051270,4612.179688,4504.230957,4451.922852,4526.282227,3106.000000,4.000000,100.000000,,,,0.000000,4.000000,4.000000,4.000000,4.000000,4.000000,4.000000,4.000000,4.000000,4.000000,4.000000,4.000000,4.000000,4.000000,4.000000,100.000000,,,,,,,,,,,,,,,,,20.000000,0.000000,0.149540,-0.717346,0.020325,-0.680176,0.947870,-0.227078,-0.032719,-36.085159,-14.817580,-11.239744
1638094143.876229,81.000000,0.000000,4381.282227,4394.615234,4377.563965,4391.922852,4416.666504,4346.666504,4376.666504,4323.333496,4331.153809,4317.436035,4613.333496,4505.641113,4454.615234,4523.077148,3491.000000,4.000000,100.000000,,,,0.000000,4.000000,4.000000,4.000000,4.000000,4.000000,4.000000,4.000000,4.000000,4.000000,4.000000,4.000000,4.000000,4.000000,4.000000,100.000000,,,,,,,,,,,,,,,,,,,,,,,,,,,,
1638094143.883937,82.000000,0.000000,4382.436035,4395.256348,4386.410156,4393.077148,4413.461426,4338.846191,4366.410156,4315.000000,4326.282227,4323.461426,4609.358887,4498.846191,4451.153809,4524.358887,2653.000000,4.000000,100.000000,,,,0.000000,4.000000,4.000000,4.000000,4.000000,4.000000,4.000000,4.000000,4.000000,4.000000,4.000000,4.000000,4.000000,4.000000,4.000000,100.000000,,,,,,,,,,,,,,,,,,,,,,,,,,,,
1638094143.891845,83.000000,0.000000,4380.000000,4392.948730,4395.128418,4397.307617,4413.461426,4340.769043,4363.846191,4314.102539,4327.692383,4322.563965,4604.743652,4497.436035,4448.333496,4523.974121,2828.000000,4.000000,100.000000,,,,0.000000,4.000000,4.000000,4.000000,4.000000,4.000000,4.000000,4.000000,4.000000,4.000000,4.000000,4.000000,4.000000,4.000000,4.000000,100.000000,,,,,,,,,,,,,,,,,,,,,,,,,,,,
1638094143.899653,84.000000,0.000000,4376.153809,4390.384766,4392.692383,4397.307617,4416.410156,4348.717773,4363.333496,4317.948730,4328.205078,4317.948730,4602.436035,4498.077148,4448.589844,4520.256348,3106.000000,4.000000,100.000000,,,,0.000000,4.000000,4.000000,4.000000,4.000000,4.000000,4.000000,4.000000,4.000000,4.000000,4.000000,4.000000,4.000000,4.000000,4.000000,100.000000,,,,,,,,,,,,,,,,,21.000000,0.000000,0.149618,-0.717163,0.020081,-0.680359,0.961055,-0.223660,-0.041509,-36.109974,-14.685822,-11.065769
1638094143.907561,85.000000,0.000000,4368.717773,4389.743652,4383.589844,4388.461426,4414.230957,4346.025879,4355.000000,4315.641113,4326.794922,4312.307617,4597.436035,4491.282227,4444.615234,4511.922852,3491.000000,4.000000,100.000000,,,,0.000000,4.000000,4.000000,4.000000,4.000000,4.000000,4.000000,4.000000,4.000000,4.000000,4.000000,4.000000,4.000000,4.000000,4.000000,100.000000,,,,,,,,,,,,,,,,,,,,,,,,,,,,
1638094143.915370,86.000000,0.000000,4359.743652,4385.641113,4375.641113,4379.230957,4415.641113,4342.563965,4348.205078,4306.794922,4326.794922,4308.205078,4583.077148,4478.461426,4432.179688,4503.846191,2653.000000,4.000000,100.000000,,,,0.000000,4.000000,4.000000,4.000000,4.000000,4.000000,4.000000,4.000000,4.000000,4.000000,4.000000,4.000000,4.000000,4.000000,4.000000,100.000000,,,,,,,,,,,,,,,,,,,,,,,,,,,,
1638094143.923278,87.000000,0.000000,4356.922852,4380.256348,4375.512695,4381.025879,4427.051270,4349.358887,4349.615234,4306.922852,4324.871582,4309.615234,4571.282227,4474.615234,4427.692383,4504.615234,2828.000000,4.000000,100.000000,,,,0.000000,4.000000,4.000000,4.000000,4.000000,4.000000,4.000000,4.000000,4.000000,4.000000,4.000000,4.000000,4.000000,4.000000,4.000000,100.000000,,,,,,,,,,,,,,,,,,,,,,,,,,,,
1638094143.931086,88.000000,0.000000,4360.897461,4377.307617,4374.358887,4380.641113,4423.205078,4352.948730,4345.897461,4317.179688,4322.436035,4311.153809,4569.358887,4479.487305,4434.615234,4505.769043,3106.000000,4.000000,100.000000,,,,0.000000,4.000000,4.000000,4.000000,4.000000,4.000000,4.000000,4.000000,4.000000,4.000000,4.000000,4.000000,4.000000,4.000000,4.000000,100.000000,,,,,,,,,,,,,,,,,22.000000,0.000000,0.149625,-0.717102,0.020142,-0.680420,0.970333,-0.240264,-0.033696,-36.282310,-14.667240,-11.075859
1638094143.938994,89.000000,0.000000,4365.256348,4375.128418,4368.461426,4372.436035,4411.282227,4348.077148,4340.256348,4322.051270,4328.461426,4309.615234,4568.717773,4478.846191,4442.307617,4504.102539,3491.000000,4.000000,100.000000,,,,0.000000,4.000000,4.000000,4.000000,4.000000,4.000000,4.000000,4.000000,4.000000,4.000000,4.000000,4.000000,4.000000,4.000000,4.000000,100.000000,,,,,,,,,,,,,,,,,,,,,,,,,,,,
1638094143.946802,90.000000,0.000000,4367.307617,4377.948730,4373.077148,4375.512695,4421.153809,4350.512695,4342.563965,4323.846191,4336.538574,4314.871582,4567.179688,4481.538574,4451.794922,4507.051270,2653.000000,4.000000,100.000000,,,,0.000000,4.000000,4.000000,4.000000,4.000000,4.000000,4.000000,4.000000,4.000000,4.000000,4.000000,4.000000,4.000000,4.000000,4.000000,100.000000,,,,,,,,,,,,,,,,,,,,,,,,,,,,
1638094143.954710,91.000000,0.000000,4365.641113,4376.153809,4378.846191,4380.897461,4427.820313,4353.333496,4342.307617,4323.461426,4332.563965,4319.871582,4559.871582,4486.922852,4457.948730,4510.256348,2828.000000,4.000000,100.000000,,,,0.000000,4.000000,4.000000,4.000000,4.000000,4.000000,4.000000,4.000000,4.000000,4.000000,4.000000,4.000000,4.000000,4.000000,4.000000,100.000000,,,,,,,,,,,,,,,,,,,,,,,,,,,,
1638094143.962519,92.000000,0.000000,4360.512695,4366.410156,4370.512695,4371.666504,4415.384766,4343.589844,4336.153809,4320.384766,4324.358887,4313.974121,4550.897461,4479.871582,4452.307617,4508.077148,3106.000000,4.000000,100.000000,,,,0.000000,4.000000,4.000000,4.000000,4.000000,4.000000,4.000000,4.000000,4.000000,4.000000,4.000000,4.000000,4.000000,4.000000,4.000000,100.000000,,,,,,,,,,,,,,,,,23.000000,0.000000,0.149876,-0.717041,0.020447,-0.680420,0.957636,-0.234892,-0.030765,-36.354080,-14.617183,-11.051607
1638094143.970227,93.000000,0.000000,4360.769043,4366.666504,4364.871582,4365.384766,4415.000000,4340.128418,4336.922852,4320.769043,4325.000000,4308.846191,4550.128418,4476.666504,4450.641113,4506.025879,3491.000000,4.000000,100.000000,,,,0.000000,4.000000,4.000000,4.000000,4.000000,4.000000,4.000000,4.000000,4.000000,4.000000,4.000000,4.000000,4.000000,4.000000,4.000000,100.000000,,,,,,,,,,,,,,,,,,,,,,,,,,,,
1638094143.978035,94.000000,0.000000,4365.256348,4373.846191,4371.666504,4371.410156,4427.820313,4346.794922,4343.589844,4320.384766,4328.205078,4312.051270,4552.692383,4490.769043,4457.948730,4506.538574,2653.000000,4.000000,100.000000,,,,0.000000,4.000000,4.000000,4.000000,4.000000,4.000000,4.000000,4.000000,4.000000,4.000000,4.000000,4.000000,4.000000,4.000000,4.000000,100.000000,,,,,,,,,,,,,,,,,,,,,,,,,,,,
1638094143.985743,95.000000,0.000000,4367.948730,4375.384766,4376.666504,4374.871582,4429.871582,4352.820313,4343.974121,4316.153809,4328.205078,4316.282227,4554.487305,4494.743652,4458.974121,4514.615234,2828.000000,4.000000,100.000000,,,,0.000000,4.000000,4.000000,4.000000,4.000000,4.000000,4.000000,4.000000,4.000000,4.000000,4.000000,4.000000,4.000000,4.000000,4.000000,100.000000,,,,,,,,,,,,,,,,,,,,,,,,,,,,
1638094143.993552,96.000000,0.000000,4369.102539,4373.846191,4376.410156,4373.077148,4426.282227,4354.358887,4341.410156,4312.051270,4326.666504,4313.717773,4548.077148,4486.153809,4450.641113,4516.282227,3106.000000,4.000000,100.000000,,,,0.000000,4.000000,4.000000,4.000000,4.000000,4.000000,4.000000,4.000000,4.000000,4.000000,4.000000,4.000000,4.000000,4.000000,4.000000,100.000000,1.000000,33.333332,4.000000,4.000000,3.000000,4.000000,4.000000,4.000000,0.000000,1.000000,4.000000,4.000000,4.000000,4.000000,4.000000,4.000000,24.000000,0.000000,0.149851,-0.717041,0.020630,-0.680420,0.947870,-0.230009,-0.026859,-36.252007,-14.605465,-11.029779
1638094144.001260,97.000000,0.000000,4369.615234,4373.077148,4375.641113,4372.563965,4428.461426,4354.615234,4342.820313,4314.358887,4324.743652,4311.153809,4541.794922,4488.205078,4447.820313,4508.846191,3491.000000,4.000000,100.000000,,,,0.000000,4.000000,4.000000,4.000000,4.000000,4.000000,4.000000,4.000000,4.000000,4.000000,4.000000,4.000000,4.000000,4.000000,4.000000,100.000000,,,,,,,,,,,,,,,,,,,,,,,,,,,,
1638094144.009068,98.000000,0.000000,4367.179688,4370.769043,4373.205078,4372.307617,4423.589844,4351.922852,4344.102539,4318.589844,4328.717773,4317.307617,4545.256348,4493.077148,4453.333496,4513.717773,2653.000000,4.000000,100.000000,,,,0.000000,4.000000,4.000000,4.000000,4.000000,4.000000,4.000000,4.000000,4.000000,4.000000,4.000000,4.000000,4.000000,4.000000,4.000000,100.000000,,,,,,,,,,,,,,,,,,,,,,,,,,,,
1638094144.016776,99.000000,0.000000,4364.102539,4370.384766,4370.384766,4372.051270,4414.487305,4346.282227,4342.436035,4316.538574,4336.153809,4326.153809,4545.897461,4489.487305,4459.487305,4518.589844,2828.000000,4.000000,100.000000,,,,0.000000,4.000000,4.000000,4.000000,4.000000,4.000000,4.000000,4.000000,4.000000,4.000000,4.000000,4.000000,4.000000,4.000000,4.000000,100.000000,,,,,,,,,,,,,,,,,,,,,,,,,,,,
1638094144.024585,100.000000,0.000000,4365.256348,4372.692383,4368.846191,4373.333496,4417.307617,4345.897461,4338.974121,4311.794922,4333.589844,4320.384766,4536.922852,4485.000000,4459.358887,4513.205078,3106.000000,4.000000,100.000000,,,,0.000000,4.000000,4.000000,4.000000,4.000000,4.000000,4.000000,4.000000,4.000000,4.000000,4.000000,4.000000,4.000000,4.000000,4.000000,100.000000,,,,,,,,,,,,,,,,,25.000000,0.000000,0.149851,-0.717041,0.020630,-0.680420,0.956660,-0.209010,-0.021487,-36.260139,-14.578252,-11.226802
1638094144.032293,101.000000,0.000000,4365.128418,4372.948730,4367.436035,4373.205078,4426.153809,4347.692383,4335.256348,4315.384766,4326.538574,4311.794922,4536.410156,4487.179688,4456.538574,4512.051270,3491.000000,4.000000,100.000000,,,,0.000000,4.000000,4.000000,4.000000,4.000000,4.000000,4.000000,4.000000,4.000000,4.000000,4.000000,4.000000,4.000000,4.000000,4.000000,100.000000,,,,,,,,,,,,,,,,,,,,,,,,,,,,
1638094144.040101,102.000000,0.000000,4365.897461,4376.922852,4368.717773,4374.743652,4424.871582,4348.974121,4338.077148,4320.128418,4326.922852,4316.538574,4544.230957,4494.102539,4461.538574,4517.563965,2653.000000,4.000000,100.000000,,,,0.000000,4.000000,4.000000,4.000000,4.000000,4.000000,4.000000,4.000000,4.000000,4.000000,4.000000,4.000000,4.000000,4.000000,4.000000,100.000000,,,,,,,,,,,,,,,,,,,,,,,,,,,,
1638094144.047809,103.000000,0.000000,4365.000000,4379.871582,4367.307617,4375.897461,4417.820313,4346.538574,4342.051270,4309.743652,4327.051270,4321.922852,4540.256348,4491.410156,4463.717773,4514.871582,2828.000000,4.000000,100.000000,,,,0.000000,4.000000,4.000000,4.000000,4.000000,4.000000,4.000000,4.000000,4.000000,4.000000,4.000000,4.000000,4.000000,4.000000,4.000000,100.000000,,,,,,,,,,,,,,,,,,,,,,,,,,,,
1638094144.055618,104.000000,0.000000,4358.589844,4377.051270,4364.230957,4375.641113,4421.410156,4345.512695,4340.641113,4303.974121,4321.153809,4319.102539,4535.512695,4483.717773,4460.128418,4508.717773,3106.000000,4.000000,100.000000,,,,0.000000,4.000000,4.000000,4.000000,4.000000,4.000000,4.000000,4.000000,4.000000,4.000000,4.000000,4.000000,4.000000,4.000000,4.000000,100.000000,,,,,,,,,,,,,,,,,26.000000,0.000000,0.149901,-0.717041,0.020264,-0.680420,0.963985,-0.236357,-0.023440,-36.200790,-14.620426,-11.187454
1638094144.063326,105.000000,0.000000,4358.846191,4376.666504,4373.205078,4377.051270,4429.358887,4349.871582,4341.282227,4311.794922,4321.538574,4315.384766,4539.615234,4487.051270,4458.589844,4511.794922,3491.000000,4.000000,100.000000,,,,0.000000,4.000000,4.000000,4.000000,4.000000,4.000000,4.000000,4.000000,4.000000,4.000000,4.000000,4.000000,4.000000,4.000000,4.000000,100.000000,,,,,,,,,,,,,,,,,,,,,,,,,,,,
1638094144.071134,106.000000,0.000000,4366.282227,4383.205078,4386.538574,4380.256348,4429.487305,4350.128418,4348.333496,4313.461426,4325.256348,4318.589844,4540.256348,4492.692383,4459.871582,4517.692383,2653.000000,4.000000,100.000000,,,,0.000000,4.000000,4.000000,4.000000,4.000000,4.000000,4.000000,4.000000,4.000000,4.000000,4.000000,4.000000,4.000000,4.000000,4.000000,100.000000,,,,,,,,,,,,,,,,,,,,,,,,,,,,
1638094144.078842,107.000000,0.000000,4368.846191,4388.589844,4393.333496,4386.922852,4426.153809,4351.538574,4355.256348,4316.922852,4331.025879,4327.179688,4541.794922,4495.512695,4466.410156,4523.333496,2828.000000,4.000000,100.000000,,,,0.000000,4.000000,4.000000,4.000000,4.000000,4.000000,4.000000,4.000000,4.000000,4.000000,4.000000,4.000000,4.000000,4.000000,4.000000,100.000000,,,,,,,,,,,,,,,,,,,,,,,,,,,,
1638094144.086651,108.000000,0.000000,4368.333496,4386.153809,4396.153809,4392.179688,4429.743652,4359.230957,4356.794922,4327.692383,4337.436035,4327.051270,4544.102539,4497.051270,4465.897461,4523.589844,3106.000000,4.000000,100.000000,,,,0.000000,4.000000,4.000000,4.000000,4.000000,4.000000,4.000000,4.000000,4.000000,4.000000,4.000000,4.000000,4.000000,4.000000,4.000000,100.000000,,,,,,,,,,,,,,,,,27.000000,0.000000,0.149689,-0.717041,0.019775,-0.680481,0.954218,-0.232939,-0.032719,-36.230713,-14.775050,-11.235375
1638094144.094359,109.000000,0.000000,4367.436035,4381.410156,4393.974121,4385.256348,4429.871582,4358.846191,4371.538574,4324.102539,4333.974121,4320.769043,4539.102539,4492.948730,4457.436035,4516.666504,3491.000000,4.000000,100.000000,,,,0.000000,4.000000,4.000000,4.000000,4.000000,4.000000,4.000000,4.000000,4.000000,4.000000,4.000000,4.000000,4.000000,4.000000,4.000000,100.000000,,,,,,,,,,,,,,,,,,,,,,,,,,,,
1638094144.102267,110.000000,0.000000,4362.307617,4375.769043,4387.692383,4371.282227,4418.717773,4347.436035,4411.153809,4311.410156,4330.641113,4322.692383,4539.102539,4489.615234,4461.282227,4510.256348,2653.000000,4.000000,100.000000,,,,0.000000,4.000000,4.000000,4.000000,4.000000,4.000000,4.000000,4.000000,4.000000,4.000000,4.000000,4.000000,4.000000,4.000000,4.000000,100.000000,,,,,,,,,,,,,,,,,,,,,,,,,,,,
1638094144.110075,111.000000,0.000000,4357.179688,4366.538574,4385.384766,4366.025879,4410.641113,4344.102539,4441.538574,4308.717773,4333.333496,4329.102539,4552.563965,4488.333496,4476.282227,4509.487305,2828.000000,4.000000,100.000000,,,,0.000000,4.000000,4.000000,4.000000,4.000000,4.000000,4.000000,4.000000,4.000000,4.000000,4.000000,4.000000,4.000000,4.000000,4.000000,100.000000,,,,,,,,,,,,,,,,,,,,,,,,,,,,
1638094144.117983,112.000000,0.000000,4353.077148,4351.282227,4382.051270,4364.358887,4403.333496,4345.384766,4428.333496,4306.153809,4331.282227,4331.282227,4553.461426,4481.282227,4475.641113,4505.769043,3106.000000,4.000000,100.000000,,,,0.000000,4.000000,4.000000,4.000000,4.000000,4.000000,4.000000,4.000000,4.000000,4.000000,4.000000,4.000000,4.000000,4.000000,4.000000,100.000000,,,,,,,,,,,,,,,,,28.000000,0.000000,0.149975,-0.717102,0.019592,-0.680359,0.957636,-0.229032,-0.032719,-36.224308,-14.714212,-11.545172
1638094144.125792,113.000000,0.000000,4343.077148,4336.025879,4368.589844,4353.846191,4396.282227,4339.230957,4399.230957,4296.153809,4325.641113,4326.282227,4539.102539,4472.307617,4459.615234,4497.179688,3491.000000,4.000000,100.000000,,,,0.000000,4.000000,4.000000,4.000000,4.000000,4.000000,4.000000,4.000000,4.000000,4.000000,4.000000,4.000000,4.000000,4.000000,4.000000,100.000000,,,,,,,,,,,,,,,,,,,,,,,,,,,,
1638094144.133700,114.000000,0.000000,4331.153809,4329.487305,4361.538574,4348.717773,4396.794922,4338.589844,4388.461426,4295.256348,4322.948730,4316.410156,4534.743652,4467.820313,4454.487305,4495.128418,2653.000000,4.000000,100.000000,,,,0.000000,4.000000,4.000000,4.000000,4.000000,4.000000,4.000000,4.000000,4.000000,4.000000,4.000000,4.000000,4.000000,4.000000,4.000000,100.000000,,,,,,,,,,,,,,,,,,,,,,,,,,,,
1638094144.141508,115.000000,0.000000,4327.820313,4326.410156,4363.846191,4350.897461,4398.717773,4340.641113,4378.717773,4304.358887,4325.384766,4315.128418,4537.692383,4465.897461,4461.025879,4493.461426,2828.000000,4.000000,100.000000,,,,0.000000,4.000000,4.000000,4.000000,4.000000,4.000000,4.000000,4.000000,4.000000,4.000000,4.000000,4.000000,4.000000,4.000000,4.000000,100.000000,,,,,,,,,,,,,,,,,,,,,,,,,,,,
1638094144.149416,116.000000,0.000000,4334.358887,4325.128418,4365.384766,4349.871582,4400.897461,4338.461426,4368.205078,4310.641113,4334.871582,4325.000000,4542.948730,4473.717773,4461.282227,4494.230957,3106.000000,4.000000,100.000000,,,,0.000000,4.000000,4.000000,4.000000,4.000000,4.000000,4.000000,4.000000,4.000000,4.000000,4.000000,4.000000,4.000000,4.000000,4.000000,100.000000,,,,,,,,,,,,,,,,,29.000000,0.000000,0.149699,-0.717163,0.019470,-0.680359,0.952265,-0.229032,-0.041509,-36.218544,-14.776124,-11.423987
1638094144.157224,117.000000,0.000000,4341.025879,4333.717773,4371.666504,4353.589844,4408.205078,4342.948730,4374.615234,4314.487305,4344.358887,4334.230957,4553.461426,4487.563965,4459.871582,4505.641113,3491.000000,4.000000,100.000000,,,,0.000000,4.000000,4.000000,4.000000,4.000000,4.000000,4.000000,4.000000,4.000000,4.000000,4.000000,4.000000,4.000000,4.000000,4.000000,100.000000,,,,,,,,,,,,,,,,,,,,,,,,,,,,
1638094144.164933,118.000000,0.000000,4343.589844,4346.410156,4380.256348,4364.615234,4415.000000,4353.846191,4375.897461,4322.307617,4342.820313,4335.897461,4558.589844,4491.666504,4467.051270,4511.025879,2653.000000,4.000000,100.000000,,,,0.000000,4.000000,4.000000,4.000000,4.000000,4.000000,4.000000,4.000000,4.000000,4.000000,4.000000,4.000000,4.000000,4.000000,4.000000,100.000000,,,,,,,,,,,,,,,,,,,,,,,,,,,,
1638094144.172741,119.000000,0.000000,4343.461426,4346.410156,4380.641113,4365.512695,4416.282227,4353.589844,4367.051270,4334.102539,4339.230957,4332.563965,4555.256348,4492.179688,4468.974121,4506.922852,2828.000000,4.000000,100.000000,,,,0.000000,4.000000,4.000000,4.000000,4.000000,4.000000,4.000000,4.000000,4.000000,4.000000,4.000000,4.000000,4.000000,4.000000,4.000000,100.000000,,,,,,,,,,,,,,,,,,,,,,,,,,,,
1638094144.180449,120.000000,0.000000,4338.846191,4339.102539,4381.153809,4356.025879,4412.179688,4342.179688,4395.512695,4336.282227,4334.102539,4326.410156,4554.871582,4492.692383,4461.153809,4506.282227,3106.000000,4.000000,100.000000,,,,0.000000,4.000000,4.000000,4.000000,4.000000,4.000000,4.000000,4.000000,4.000000,4.000000,4.000000,4.000000,4.000000,4.000000,4.000000,100.000000,,,,,,,,,,,,,,,,,30.000000,0.000000,0.149407,-0.717285,0.019348,-0.680298,0.956171,-0.225125,-0.034184,-36.163357,-14.748511,-11.514922
1638094144.188257,121.000000,0.000000,4334.487305,4338.461426,4406.410156,4355.128418,4405.000000,4340.256348,4447.692383,4327.948730,4325.769043,4321.153809,4555.769043,4489.358887,4458.974121,4506.794922,3491.000000,4.000000,100.000000,,,,0.000000,4.000000,4.000000,4.000000,4.000000,4.000000,4.000000,4.000000,4.000000,4.000000,4.000000,4.000000,4.000000,4.000000,4.000000,100.000000,,,,,,,,,,,,,,,,,,,,,,,,,,,,
1638094144.195966,122.000000,0.000000,4338.846191,4342.563965,4472.051270,4362.179688,4406.282227,4348.333496,4452.307617,4325.000000,4327.563965,4320.000000,4552.563965,4487.820313,4461.666504,4506.538574,2653.000000,4.000000,100.000000,,,,0.000000,4.000000,4.000000,4.000000,4.000000,4.000000,4.000000,4.000000,4.000000,4.000000,4.000000,4.000000,4.000000,4.000000,4.000000,100.000000,,,,,,,,,,,,,,,,,,,,,,,,,,,,
1638094144.203774,123.000000,0.000000,4342.820313,4344.871582,4536.538574,4364.871582,4413.974121,4350.512695,4421.282227,4327.179688,4333.846191,4322.563965,4550.897461,4490.641113,4460.384766,4507.436035,2828.000000,4.000000,100.000000,,,,0.000000,4.000000,4.000000,4.000000,4.000000,4.000000,4.000000,4.000000,4.000000,4.000000,4.000000,4.000000,4.000000,4.000000,4.000000,100.000000,,,,,,,,,,,,,,,,,,,,,,,,,,,,
1638094144.211482,124.000000,0.000000,4346.282227,4347.820313,4539.743652,4368.205078,4413.333496,4353.333496,4410.897461,4325.000000,4334.230957,4328.846191,4558.077148,4496.282227,4464.743652,4512.051270,3106.000000,4.000000,100.000000,,,,0.000000,4.000000,4.000000,4.000000,4.000000,4.000000,4.000000,4.000000,4.000000,4.000000,4.000000,4.000000,4.000000,4.000000,4.000000,100.000000,,,,,,,,,,,,,,,,,31.000000,0.000000,0.149400,-0.717407,0.019165,-0.680176,0.961543,-0.236357,-0.024417,-36.013687,-14.756994,-11.630096
1638094144.219290,125.000000,0.000000,4352.436035,4354.615234,4501.025879,4373.846191,4412.179688,4357.692383,4410.384766,4321.794922,4334.230957,4335.384766,4567.436035,4499.102539,4475.000000,4522.563965,3491.000000,4.000000,100.000000,,,,0.000000,4.000000,4.000000,4.000000,4.000000,4.000000,4.000000,4.000000,4.000000,4.000000,4.000000,4.000000,4.000000,4.000000,4.000000,100.000000,,,,,,,,,,,,,,,,,,,,,,,,,,,,
1638094144.226999,126.000000,0.000000,4349.615234,4357.051270,4479.487305,4374.487305,4415.384766,4354.358887,4395.512695,4323.205078,4336.794922,4337.051270,4561.282227,4496.410156,4477.179688,4527.563965,2653.000000,4.000000,100.000000,,,,0.000000,4.000000,4.000000,4.000000,4.000000,4.000000,4.000000,4.000000,4.000000,4.000000,4.000000,4.000000,4.000000,4.000000,4.000000,100.000000,,,,,,,,,,,,,,,,,,,,,,,,,,,,
1638094144.234807,127.000000,0.000000,4343.205078,4351.794922,4470.769043,4372.436035,4412.307617,4348.077148,4382.307617,4324.743652,4335.384766,4332.563965,4551.538574,4492.563965,4468.846191,4516.538574,100.000000,4.000000,100.000000,,,,0.000000,4.000000,4.000000,4.000000,4.000000,4.000000,4.000000,4.000000,4.000000,4.000000,4.000000,4.000000,4.000000,4.000000,4.000000,100.000000,,,,,,,,,,,,,,,,,,,,,,,,,,,,
1638094144.242515,0.000000,0.000000,4342.563965,4349.615234,4451.922852,4372.051270,4407.436035,4350.256348,4380.128418,4325.512695,4332.820313,4328.717773,4560.769043,4492.820313,4467.307617,4509.871582,2560.000000,4.000000,100.000000,,,,0.000000,4.000000,4.000000,4.000000,4.000000,4.000000,4.000000,4.000000,4.000000,4.000000,4.000000,4.000000,4.000000,4.000000,4.000000,100.000000,,,,,,,,,,,,,,,,,0.000000,0.000000,0.149400,-0.717407,0.019165,-0.680176,0.962520,-0.223172,-0.022952,-36.095650,-14.797961,-11.650420
1638094144.250323,1.000000,0.000000,4343.846191,4350.384766,4439.102539,4369.871582,4404.487305,4355.128418,4382.436035,4325.512695,4337.820313,4330.384766,4570.769043,4497.051270,4472.307617,4519.230957,2483.000000,4.000000,100.000000,,,,0.000000,4.000000,4.000000,4.000000,4.000000,4.000000,4.000000,4.000000,4.000000,4.000000,4.000000,4.000000,4.000000,4.000000,4.000000,100.000000,,,,,,,,,,,,,,,,,,,,,,,,,,,,
1638094144.258032,2.000000,0.000000,4343.333496,4344.487305,4436.794922,4366.153809,4398.461426,4353.974121,4378.461426,4321.025879,4338.333496,4331.025879,4562.820313,4497.051270,4467.820313,4520.128418,2444.000000,4.000000,100.000000,,,,0.000000,4.000000,4.000000,4.000000,4.000000,4.000000,4.000000,4.000000,4.000000,4.000000,4.000000,4.000000,4.000000,4.000000,4.000000,100.000000,,,,,,,,,,,,,,,,,,,,,,,,,,,,
1638094144.265940,3.000000,0.000000,4334.871582,4338.461426,4425.256348,4364.487305,4393.333496,4350.641113,4365.512695,4313.077148,4327.692383,4321.282227,4551.666504,4481.538574,4458.333496,4507.563965,2439.000000,4.000000,100.000000,,,,0.000000,4.000000,4.000000,4.000000,4.000000,4.000000,4.000000,4.000000,4.000000,4.000000,4.000000,4.000000,4.000000,4.000000,4.000000,100.000000,,,,,,,,,,,,,,,,,,,,,,,,,,,,
1638094144.273748,4.000000,0.000000,4326.410156,4343.974121,4411.538574,4364.487305,4395.384766,4348.461426,4359.615234,4308.589844,4320.641113,4314.102539,4551.666504,4469.871582,4458.205078,4501.538574,2317.000000,4.000000,100.000000,,,,0.000000,4.000000,4.000000,4.000000,4.000000,4.000000,4.000000,4.000000,4.000000,4.000000,4.000000,4.000000,4.000000,4.000000,4.000000,100.000000,,,,,,,,,,,,,,,,,1.000000,0.000000,0.149378,-0.717529,0.019104,-0.680054,0.950311,-0.237334,-0.037602,-36.086086,-14.951498,-11.618711
1638094144.281656,5.000000,0.000000,4330.641113,4350.897461,4410.897461,4368.589844,4397.563965,4352.179688,4364.743652,4309.871582,4326.410156,4323.077148,4557.051270,4482.692383,4462.948730,4508.205078,2282.000000,4.000000,100.000000,,,,0.000000,4.000000,4.000000,4.000000,4.000000,4.000000,4.000000,4.000000,4.000000,4.000000,4.000000,4.000000,4.000000,4.000000,4.000000,100.000000,,,,,,,,,,,,,,,,,,,,,,,,,,,,
1638094144.289464,6.000000,0.000000,4337.820313,4347.820313,4415.641113,4372.307617,4398.461426,4360.128418,4368.717773,4313.846191,4332.563965,4329.615234,4559.358887,4495.897461,4462.307617,4514.615234,2286.000000,4.000000,100.000000,,,,0.000000,4.000000,4.000000,4.000000,4.000000,4.000000,4.000000,4.000000,4.000000,4.000000,4.000000,4.000000,4.000000,4.000000,4.000000,100.000000,,,,,,,,,,,,,,,,,,,,,,,,,,,,
1638094144.297372,7.000000,0.000000,4335.512695,4341.410156,4412.692383,4368.846191,4400.897461,4359.743652,4367.820313,4316.025879,4328.717773,4325.512695,4557.436035,4492.948730,4461.794922,4513.974121,2327.000000,4.000000,100.000000,,,,0.000000,4.000000,4.000000,4.000000,4.000000,4.000000,4.000000,4.000000,4.000000,4.000000,4.000000,4.000000,4.000000,4.000000,4.000000,100.000000,,,,,,,,,,,,,,,,,,,,,,,,,,,,
1638094144.305181,8.000000,0.000000,4332.436035,4339.743652,4407.692383,4365.128418,4397.563965,4351.922852,4364.871582,4314.871582,4322.179688,4323.846191,4555.769043,4490.769043,4461.410156,4509.871582,2398.000000,4.000000,100.000000,,,,0.000000,4.000000,4.000000,4.000000,4.000000,4.000000,4.000000,4.000000,4.000000,4.000000,4.000000,4.000000,4.000000,4.000000,4.000000,100.000000,,,,,,,,,,,,,,,,,2.000000,0.000000,0.149917,-0.717529,0.019226,-0.679932,0.961543,-0.234404,-0.032719,-36.110809,-14.889682,-11.523507
1638094144.313089,9.000000,0.000000,4331.025879,4342.436035,4404.615234,4367.179688,4391.025879,4349.358887,4360.128418,4313.846191,4323.974121,4325.256348,4558.974121,4492.307617,4460.384766,4508.461426,2381.000000,4.000000,100.000000,,,,0.000000,4.000000,4.000000,4.000000,4.000000,4.000000,4.000000,4.000000,4.000000,4.000000,4.000000,4.000000,4.000000,4.000000,4.000000,100.000000,,,,,,,,,,,,,,,,,,,,,,,,,,,,
1638094144.320897,10.000000,0.000000,4320.641113,4341.794922,4397.948730,4366.282227,4389.743652,4351.410156,4354.102539,4313.717773,4325.897461,4319.358887,4556.153809,4484.487305,4458.205078,4506.282227,2660.000000,4.000000,100.000000,,,,0.000000,4.000000,4.000000,4.000000,4.000000,4.000000,4.000000,4.000000,4.000000,4.000000,4.000000,4.000000,4.000000,4.000000,4.000000,100.000000,,,,,,,,,,,,,,,,,,,,,,,,,,,,
1638094144.328805,11.000000,0.000000,4310.000000,4334.102539,4387.692383,4359.871582,4390.000000,4348.974121,4350.512695,4309.230957,4317.436035,4312.436035,4543.077148,4474.615234,4450.000000,4494.743652,2835.000000,4.000000,100.000000,,,,0.000000,4.000000,4.000000,4.000000,4.000000,4.000000,4.000000,4.000000,4.000000,4.000000,4.000000,4.000000,4.000000,4.000000,4.000000,100.000000,,,,,,,,,,,,,,,,,,,,,,,,,,,,
1638094144.336613,12.000000,0.000000,4307.179688,4327.820313,4380.384766,4356.153809,4386.025879,4346.538574,4348.846191,4309.230957,4320.384766,4312.307617,4534.871582,4472.948730,4440.641113,4485.897461,3124.000000,4.000000,100.000000,,,,0.000000,4.000000,4.000000,4.000000,4.000000,4.000000,4.000000,4.000000,4.000000,4.000000,4.000000,4.000000,4.000000,4.000000,4.000000,100.000000,,,,,,,,,,,,,,,,,3.000000,0.000000,0.149609,-0.717590,0.019348,-0.679932,0.960078,-0.237334,-0.030765,-36.099731,-15.000713,-11.554490
1638094144.344521,13.000000,0.000000,4308.461426,4332.051270,4380.897461,4358.717773,4387.563965,4348.717773,4348.846191,4318.205078,4333.461426,4318.846191,4540.128418,4476.025879,4442.820313,4494.615234,3501.000000,4.000000,100.000000,,,,0.000000,4.000000,4.000000,4.000000,4.000000,4.000000,4.000000,4.000000,4.000000,4.000000,4.000000,4.000000,4.000000,4.000000,4.000000,100.000000,,,,,,,,,,,,,,,,,,,,,,,,,,,,
1638094144.352330,14.000000,0.000000,4308.461426,4338.205078,4383.846191,4359.102539,4395.641113,4352.948730,4350.641113,4317.307617,4330.384766,4321.025879,4545.256348,4476.794922,4450.384766,4502.179688,2660.000000,4.000000,100.000000,,,,0.000000,4.000000,4.000000,4.000000,4.000000,4.000000,4.000000,4.000000,4.000000,4.000000,4.000000,4.000000,4.000000,4.000000,4.000000,100.000000,,,,,,,,,,,,,,,,,,,,,,,,,,,,
1638094144.360038,15.000000,0.000000,4308.077148,4333.974121,4375.128418,4357.563965,4397.179688,4356.538574,4353.846191,4311.794922,4323.205078,4313.717773,4541.282227,4476.410156,4446.794922,4496.538574,2835.000000,4.000000,100.000000,,,,0.000000,4.000000,4.000000,4.000000,4.000000,4.000000,4.000000,4.000000,4.000000,4.000000,4.000000,4.000000,4.000000,4.000000,4.000000,100.000000,,,,,,,,,,,,,,,,,,,,,,,,,,,,
1638094144.367846,16.000000,0.000000,4309.743652,4331.538574,4375.128418,4361.538574,4394.615234,4356.794922,4356.666504,4318.589844,4327.436035,4314.743652,4544.230957,4484.230957,4446.410156,4497.307617,0.000000,4.000000,100.000000,,,,0.000000,4.000000,4.000000,4.000000,4.000000,4.000000,4.000000,4.000000,4.000000,4.000000,4.000000,4.000000,4.000000,4.000000,4.000000,100.000000,,,,,,,,,,,,,,,,,4.000000,0.000000,0.150184,-0.717407,0.019531,-0.679993,0.963497,-0.238799,-0.036137,-36.139755,-15.033976,-11.432374
1638094144.375554,17.000000,0.000000,4308.974121,4338.333496,4393.461426,4366.666504,4397.436035,4356.410156,4356.538574,4322.563965,4328.333496,4323.846191,4555.000000,4492.436035,4455.128418,4507.820313,0.000000,4.000000,100.000000,,,,0.000000,4.000000,4.000000,4.000000,4.000000,4.000000,4.000000,4.000000,4.000000,4.000000,4.000000,4.000000,4.000000,4.000000,4.000000,100.000000,,,,,,,,,,,,,,,,,,,,,,,,,,,,
1638094144.383363,18.000000,0.000000,4310.897461,4343.846191,4373.589844,4370.000000,4401.922852,4358.077148,4352.179688,4315.641113,4327.563965,4324.615234,4557.436035,4490.512695,4460.641113,4511.794922,0.000000,4.000000,100.000000,,,,0.000000,4.000000,4.000000,4.000000,4.000000,4.000000,4.000000,4.000000,4.000000,4.000000,4.000000,4.000000,4.000000,4.000000,4.000000,100.000000,,,,,,,,,,,,,,,,,,,,,,,,,,,,
1638094144.391071,19.000000,0.000000,4311.410156,4344.358887,4391.794922,4370.897461,4400.000000,4355.000000,4345.641113,4312.563965,4333.461426,4323.205078,4553.077148,4487.307617,4457.436035,4512.307617,0.000000,4.000000,100.000000,,,,0.000000,4.000000,4.000000,4.000000,4.000000,4.000000,4.000000,4.000000,4.000000,4.000000,4.000000,4.000000,4.000000,4.000000,4.000000,100.000000,,,,,,,,,,,,,,,,,,,,,,,,,,,,
1638094144.398879,20.000000,0.000000,4303.205078,4342.436035,4538.333496,4368.589844,4396.025879,4349.102539,4341.794922,4314.102539,4335.000000,4325.769043,4553.077148,4490.897461,4449.871582,4512.307617,0.000000,4.000000,100.000000,,,,0.000000,4.000000,4.000000,4.000000,4.000000,4.000000,4.000000,4.000000,4.000000,4.000000,4.000000,4.000000,4.000000,4.000000,4.000000,100.000000,,,,,,,,,,,,,,,,,5.000000,0.000000,0.150152,-0.717407,0.019775,-0.679993,0.959590,-0.238310,-0.038579,-36.175781,-14.947245,-11.289137
1638094144.406587,21.000000,0.000000,4299.230957,4341.153809,4633.717773,4367.563965,4394.230957,4347.307617,4340.256348,4312.307617,4333.077148,4324.743652,4553.974121,4489.230957,4446.666504,4510.256348,0.000000,4.000000,100.000000,,,,0.000000,4.000000,4.000000,4.000000,4.000000,4.000000,4.000000,4.000000,4.000000,4.000000,4.000000,4.000000,4.000000,4.000000,4.000000,100.000000,,,,,,,,,,,,,,,,,,,,,,,,,,,,
1638094144.414396,22.000000,0.000000,4306.922852,4343.717773,4565.897461,4374.102539,4395.512695,4350.256348,4342.692383,4316.153809,4334.871582,4322.692383,4552.051270,4488.589844,4453.461426,4514.615234,0.000000,4.000000,100.000000,,,,0.000000,4.000000,4.000000,4.000000,4.000000,4.000000,4.000000,4.000000,4.000000,4.000000,4.000000,4.000000,4.000000,4.000000,4.000000,100.000000,,,,,,,,,,,,,,,,,,,,,,,,,,,,
1638094144.422104,23.000000,0.000000,4311.410156,4349.615234,4503.205078,4382.051270,4401.794922,4353.974121,4348.846191,4324.230957,4339.743652,4329.230957,4557.692383,4500.256348,4460.512695,4522.307617,0.000000,4.000000,100.000000,,,,0.000000,4.000000,4.000000,4.000000,4.000000,4.000000,4.000000,4.000000,4.000000,4.000000,4.000000,4.000000,4.000000,4.000000,4.000000,100.000000,,,,,,,,,,,,,,,,,,,,,,,,,,,,
1638094144.429912,24.000000,0.000000,4307.563965,4351.794922,4510.512695,4382.948730,4404.743652,4357.307617,4351.153809,4326.282227,4344.615234,4334.230957,4567.563965,4509.487305,4460.000000,4521.794922,0.000000,4.000000,100.000000,,,,0.000000,4.000000,4.000000,4.000000,4.000000,4.000000,4.000000,4.000000,4.000000,4.000000,4.000000,4.000000,4.000000,4.000000,4.000000,100.000000,,,,,,,,,,,,,,,,,6.000000,0.000000,0.150168,-0.717346,0.019775,-0.680054,0.950311,-0.233427,-0.035649,-36.241535,-15.002521,-11.343556
1638094144.437620,25.000000,0.000000,4308.205078,4352.051270,4494.230957,4384.743652,4403.333496,4361.410156,4352.820313,4327.051270,4344.230957,4330.512695,4570.256348,4509.615234,4463.589844,4521.153809,0.000000,4.000000,100.000000,,,,0.000000,4.000000,4.000000,4.000000,4.000000,4.000000,4.000000,4.000000,4.000000,4.000000,4.000000,4.000000,4.000000,4.000000,4.000000,100.000000,,,,,,,,,,,,,,,,,,,,,,,,,,,,
1638094144.445529,26.000000,0.000000,4312.820313,4360.897461,4470.769043,4390.000000,4408.333496,4362.692383,4356.794922,4328.205078,4337.692383,4327.563965,4566.922852,4510.769043,4469.615234,4528.717773,0.000000,4.000000,100.000000,,,,0.000000,4.000000,4.000000,4.000000,4.000000,4.000000,4.000000,4.000000,4.000000,4.000000,4.000000,4.000000,4.000000,4.000000,4.000000,100.000000,,,,,,,,,,,,,,,,,,,,,,,,,,,,
1638094144.453337,27.000000,0.000000,4312.563965,4370.000000,4467.820313,4391.794922,4415.000000,4358.077148,4352.692383,4323.333496,4331.666504,4327.948730,4566.282227,4509.615234,4466.922852,4530.641113,0.000000,4.000000,100.000000,,,,0.000000,4.000000,4.000000,4.000000,4.000000,4.000000,4.000000,4.000000,4.000000,4.000000,4.000000,4.000000,4.000000,4.000000,4.000000,100.000000,,,,,,,,,,,,,,,,,,,,,,,,,,,,
1638094144.461245,28.000000,0.000000,4310.128418,4366.922852,4453.846191,4389.615234,4411.025879,4355.256348,4347.179688,4317.563965,4333.717773,4330.897461,4568.846191,4508.077148,4464.615234,4527.436035,0.000000,4.000000,100.000000,,,,0.000000,4.000000,4.000000,4.000000,4.000000,4.000000,4.000000,4.000000,4.000000,4.000000,4.000000,4.000000,4.000000,4.000000,4.000000,100.000000,,,,,,,,,,,,,,,,,7.000000,0.000000,0.149914,-0.717285,0.019714,-0.680176,0.960078,-0.233915,-0.035649,-36.350716,-15.118935,-11.325868
1638094144.469053,29.000000,0.000000,4312.436035,4360.256348,4440.897461,4392.051270,4411.282227,4361.922852,4351.025879,4324.743652,4344.230957,4340.000000,4573.589844,4517.820313,4473.461426,4534.102539,0.000000,4.000000,100.000000,,,,0.000000,4.000000,4.000000,4.000000,4.000000,4.000000,4.000000,4.000000,4.000000,4.000000,4.000000,4.000000,4.000000,4.000000,4.000000,100.000000,,,,,,,,,,,,,,,,,,,,,,,,,,,,
1638094144.476961,30.000000,0.000000,4312.820313,4359.871582,4434.487305,4394.358887,4417.820313,4360.128418,4347.051270,4327.948730,4345.256348,4340.512695,4574.230957,4520.000000,4480.897461,4538.077148,0.000000,4.000000,100.000000,,,,0.000000,4.000000,4.000000,4.000000,4.000000,4.000000,4.000000,4.000000,4.000000,4.000000,4.000000,4.000000,4.000000,4.000000,4.000000,100.000000,,,,,,,,,,,,,,,,,,,,,,,,,,,,
1638094144.484769,31.000000,0.000000,4300.128418,4357.563965,4423.589844,4383.333496,4408.077148,4343.717773,4332.179688,4313.717773,4330.897461,4327.051270,4562.436035,4505.641113,4470.641113,4524.871582,0.000000,4.000000,100.000000,,,,0.000000,4.000000,4.000000,4.000000,4.000000,4.000000,4.000000,4.000000,4.000000,4.000000,4.000000,4.000000,4.000000,4.000000,4.000000,100.000000,,,,,,,,,,,,,,,,,,,,,,,,,,,,
1638094144.492677,32.000000,0.000000,4289.487305,4350.641113,4400.897461,4372.436035,4395.000000,4341.922852,4330.128418,4315.000000,4329.487305,4327.692383,4553.846191,4501.410156,4459.615234,4517.179688,0.000000,4.000000,100.000000,,,,0.000000,4.000000,4.000000,4.000000,4.000000,4.000000,4.000000,4.000000,4.000000,4.000000,4.000000,4.000000,4.000000,4.000000,4.000000,100.000000,1.000000,25.000000,4.000000,4.000000,1.000000,4.000000,4.000000,4.000000,1.000000,1.000000,4.000000,4.000000,4.000000,4.000000,4.000000,4.000000,8.000000,0.000000,0.149907,-0.717346,0.019653,-0.680115,0.963985,-0.228544,-0.036137,-36.282310,-15.140375,-11.226614
1638094144.500486,33.000000,0.000000,4291.025879,4347.179688,4426.922852,4376.153809,4396.794922,4351.410156,4334.102539,4327.436035,4336.666504,4334.230957,4556.922852,4502.563965,4459.102539,4519.615234,0.000000,4.000000,100.000000,,,,0.000000,4.000000,4.000000,4.000000,4.000000,4.000000,4.000000,4.000000,4.000000,4.000000,4.000000,4.000000,4.000000,4.000000,4.000000,100.000000,,,,,,,,,,,,,,,,,,,,,,,,,,,,
1638094144.508394,34.000000,0.000000,4289.743652,4350.641113,4551.025879,4382.436035,4399.871582,4346.282227,4326.794922,4319.230957,4330.512695,4325.256348,4554.230957,4497.820313,4460.512695,4517.436035,0.000000,4.000000,100.000000,,,,0.000000,4.000000,4.000000,4.000000,4.000000,4.000000,4.000000,4.000000,4.000000,4.000000,4.000000,4.000000,4.000000,4.000000,4.000000,100.000000,,,,,,,,,,,,,,,,,,,,,,,,,,,,
1638094144.516202,35.000000,0.000000,4282.563965,4354.102539,4726.282227,4379.358887,4396.922852,4338.846191,4321.025879,4315.128418,4325.384766,4321.025879,4548.077148,4498.974121,4459.102539,4515.256348,0.000000,4.000000,100.000000,,,,0.000000,4.000000,4.000000,4.000000,4.000000,4.000000,4.000000,4.000000,4.000000,4.000000,4.000000,4.000000,4.000000,4.000000,4.000000,100.000000,,,,,,,,,,,,,,,,,,,,,,,,,,,,
1638094144.524110,36.000000,0.000000,4279.358887,4347.563965,4862.948730,4377.436035,4395.897461,4348.589844,4325.128418,4344.102539,4325.256348,4321.538574,4550.769043,4507.948730,4452.051270,4515.128418,0.000000,4.000000,100.000000,,,,0.000000,4.000000,4.000000,4.000000,4.000000,4.000000,4.000000,4.000000,4.000000,4.000000,4.000000,4.000000,4.000000,4.000000,4.000000,100.000000,,,,,,,,,,,,,,,,,9.000000,0.000000,0.149907,-0.717346,0.019653,-0.680115,0.939079,-0.237822,-0.024417,-36.187412,-15.009670,-11.137286
1638094144.531918,37.000000,0.000000,4280.256348,4343.461426,4877.820313,4381.538574,4396.153809,4352.051270,4328.717773,4368.205078,4320.897461,4315.897461,4555.641113,4515.512695,4450.128418,4515.000000,0.000000,4.000000,100.000000,,,,0.000000,4.000000,4.000000,4.000000,4.000000,4.000000,4.000000,4.000000,4.000000,4.000000,4.000000,4.000000,4.000000,4.000000,4.000000,100.000000,,,,,,,,,,,,,,,,,,,,,,,,,,,,
1638094144.539826,38.000000,0.000000,4283.717773,4348.974121,4784.615234,4383.333496,4396.794922,4344.230957,4328.205078,4360.128418,4324.230957,4318.846191,4561.282227,4521.153809,4465.769043,4521.282227,0.000000,4.000000,100.000000,,,,0.000000,4.000000,4.000000,4.000000,4.000000,4.000000,4.000000,4.000000,4.000000,4.000000,4.000000,4.000000,4.000000,4.000000,4.000000,100.000000,,,,,,,,,,,,,,,,,,,,,,,,,,,,
1638094144.547635,39.000000,0.000000,4292.051270,4348.974121,4695.769043,4383.333496,4399.743652,4346.410156,4335.897461,4350.000000,4334.487305,4328.846191,4572.307617,4524.487305,4479.102539,4528.205078,0.000000,4.000000,100.000000,,,,0.000000,4.000000,4.000000,4.000000,4.000000,4.000000,4.000000,4.000000,4.000000,4.000000,4.000000,4.000000,4.000000,4.000000,4.000000,100.000000,,,,,,,,,,,,,,,,,,,,,,,,,,,,
1638094144.555343,40.000000,0.000000,4293.461426,4338.974121,4657.051270,4383.205078,4399.230957,4354.487305,4348.717773,4350.128418,4336.538574,4330.128418,4575.128418,4521.153809,4475.512695,4524.358887,0.000000,4.000000,100.000000,,,,0.000000,4.000000,4.000000,4.000000,4.000000,4.000000,4.000000,4.000000,4.000000,4.000000,4.000000,4.000000,4.000000,4.000000,4.000000,100.000000,,,,,,,,,,,,,,,,,10.000000,0.000000,0.149892,-0.717407,0.019653,-0.680054,0.959590,-0.246612,-0.027347,-36.118671,-15.025371,-11.090224
1638094144.563151,41.000000,0.000000,4284.358887,4335.512695,4613.461426,4380.897461,4396.538574,4350.641113,4349.230957,4346.153809,4334.743652,4327.179688,4563.461426,4514.102539,4473.077148,4516.410156,0.000000,4.000000,100.000000,,,,0.000000,4.000000,4.000000,4.000000,4.000000,4.000000,4.000000,4.000000,4.000000,4.000000,4.000000,4.000000,4.000000,4.000000,4.000000,100.000000,,,,,,,,,,,,,,,,,,,,,,,,,,,,
1638094144.570859,42.000000,0.000000,4280.512695,4340.897461,4564.358887,4379.615234,4393.846191,4342.692383,4336.922852,4336.666504,4330.384766,4322.051270,4553.205078,4507.436035,4473.974121,4512.307617,0.000000,4.000000,100.000000,,,,0.000000,4.000000,4.000000,4.000000,4.000000,4.000000,4.000000,4.000000,4.000000,4.000000,4.000000,4.000000,4.000000,4.000000,4.000000,100.000000,,,,,,,,,,,,,,,,,,,,,,,,,,,,
1638094144.578768,43.000000,0.000000,4282.692383,4341.794922,4543.077148,4381.410156,4393.974121,4345.000000,4331.794922,4329.102539,4323.333496,4318.461426,4553.974121,4503.974121,4469.743652,4512.307617,0.000000,4.000000,100.000000,,,,0.000000,4.000000,4.000000,4.000000,4.000000,4.000000,4.000000,4.000000,4.000000,4.000000,4.000000,4.000000,4.000000,4.000000,4.000000,100.000000,,,,,,,,,,,,,,,,,,,,,,,,,,,,
1638094144.586576,44.000000,0.000000,4284.743652,4340.512695,4527.179688,4382.179688,4395.641113,4351.410156,4335.769043,4330.641113,4329.102539,4330.897461,4562.179688,4510.000000,4476.410156,4516.666504,0.000000,4.000000,100.000000,,,,0.000000,4.000000,4.000000,4.000000,4.000000,4.000000,4.000000,4.000000,4.000000,4.000000,4.000000,4.000000,4.000000,4.000000,4.000000,100.000000,,,,,,,,,,,,,,,,,11.000000,0.000000,0.149861,-0.717529,0.019653,-0.679932,0.951288,-0.232450,-0.021487,-35.823471,-14.972834,-10.897868
1638094144.594484,45.000000,0.000000,4290.384766,4344.230957,4510.000000,4381.666504,4398.717773,4351.538574,4332.820313,4337.563965,4342.563965,4342.563965,4569.487305,4516.282227,4485.641113,4521.922852,0.000000,4.000000,100.000000,,,,0.000000,4.000000,4.000000,4.000000,4.000000,4.000000,4.000000,4.000000,4.000000,4.000000,4.000000,4.000000,4.000000,4.000000,4.000000,100.000000,,,,,,,,,,,,,,,,,,,,,,,,,,,,
1638094144.602292,46.000000,0.000000,4291.794922,4351.794922,4495.641113,4387.051270,4402.948730,4349.102539,4327.692383,4339.871582,4344.102539,4339.358887,4568.077148,4514.102539,4480.641113,4523.717773,0.000000,4.000000,100.000000,,,,0.000000,4.000000,4.000000,4.000000,4.000000,4.000000,4.000000,4.000000,4.000000,4.000000,4.000000,4.000000,4.000000,4.000000,4.000000,100.000000,,,,,,,,,,,,,,,,,,,,,,,,,,,,
1638094144.610200,47.000000,0.000000,4282.563965,4351.410156,4480.769043,4390.256348,4404.102539,4350.384766,4328.333496,4333.717773,4337.307617,4333.717773,4560.128418,4507.436035,4473.717773,4516.282227,0.000000,4.000000,100.000000,,,,0.000000,4.000000,4.000000,4.000000,4.000000,4.000000,4.000000,4.000000,4.000000,4.000000,4.000000,4.000000,4.000000,4.000000,4.000000,100.000000,,,,,,,,,,,,,,,,,,,,,,,,,,,,
1638094144.618008,48.000000,0.000000,4276.922852,4348.461426,4464.487305,4385.256348,4405.000000,4351.922852,4327.051270,4328.205078,4332.948730,4330.128418,4554.487305,4500.769043,4473.846191,4506.922852,0.000000,4.000000,100.000000,,,,0.000000,4.000000,4.000000,4.000000,4.000000,4.000000,4.000000,4.000000,4.000000,4.000000,4.000000,4.000000,4.000000,4.000000,4.000000,100.000000,,,,,,,,,,,,,,,,,12.000000,0.000000,0.149862,-0.717590,0.019531,-0.679871,0.964962,-0.216823,-0.028812,-35.891125,-14.925550,-10.974748
1638094144.625917,49.000000,0.000000,4283.077148,4353.589844,4452.051270,4387.820313,4407.692383,4351.410156,4323.205078,4325.897461,4329.102539,4325.897461,4556.153809,4498.589844,4475.641113,4508.717773,0.000000,4.000000,100.000000,,,,0.000000,4.000000,4.000000,4.000000,4.000000,4.000000,4.000000,4.000000,4.000000,4.000000,4.000000,4.000000,4.000000,4.000000,4.000000,100.000000,,,,,,,,,,,,,,,,,,,,,,,,,,,,
1638094144.633725,50.000000,0.000000,4285.128418,4354.358887,4446.282227,4395.128418,4411.282227,4351.666504,4321.794922,4325.256348,4322.692383,4324.487305,4556.922852,4498.205078,4475.384766,4512.948730,0.000000,4.000000,100.000000,,,,0.000000,4.000000,4.000000,4.000000,4.000000,4.000000,4.000000,4.000000,4.000000,4.000000,4.000000,4.000000,4.000000,4.000000,4.000000,100.000000,,,,,,,,,,,,,,,,,,,,,,,,,,,,
1638094144.641633,51.000000,0.000000,4282.820313,4353.205078,4438.461426,4392.436035,4412.179688,4351.794922,4321.922852,4328.717773,4325.769043,4326.922852,4556.025879,4497.563965,4477.692383,4510.512695,0.000000,4.000000,100.000000,,,,0.000000,4.000000,4.000000,4.000000,4.000000,4.000000,4.000000,4.000000,4.000000,4.000000,4.000000,4.000000,4.000000,4.000000,4.000000,100.000000,,,,,,,,,,,,,,,,,,,,,,,,,,,,
1638094144.649441,52.000000,0.000000,4281.153809,4352.307617,4422.307617,4385.641113,4402.948730,4351.666504,4317.692383,4328.589844,4333.461426,4327.307617,4556.538574,4493.333496,4476.794922,4503.974121,0.000000,4.000000,100.000000,,,,0.000000,4.000000,4.000000,4.000000,4.000000,4.000000,4.000000,4.000000,4.000000,4.000000,4.000000,4.000000,4.000000,4.000000,4.000000,100.000000,,,,,,,,,,,,,,,,,13.000000,0.000000,0.149632,-0.717529,0.019287,-0.679993,0.952265,-0.239775,-0.030765,-35.852013,-14.916328,-10.943940
1638094144.657349,53.000000,0.000000,4277.820313,4347.051270,4410.000000,4387.436035,4392.820313,4349.743652,4310.897461,4325.128418,4328.846191,4325.256348,4554.230957,4488.717773,4469.230957,4502.179688,0.000000,4.000000,100.000000,,,,0.000000,4.000000,4.000000,4.000000,4.000000,4.000000,4.000000,4.000000,4.000000,4.000000,4.000000,4.000000,4.000000,4.000000,4.000000,100.000000,,,,,,,,,,,,,,,,,,,,,,,,,,,,
1638094144.665157,54.000000,0.000000,4279.743652,4347.948730,4410.897461,4393.333496,4402.820313,4348.333496,4315.000000,4325.128418,4324.102539,4326.153809,4550.128418,4489.358887,4468.589844,4508.717773,0.000000,4.000000,100.000000,,,,0.000000,4.000000,4.000000,4.000000,4.000000,4.000000,4.000000,4.000000,4.000000,4.000000,4.000000,4.000000,4.000000,4.000000,4.000000,100.000000,,,,,,,,,,,,,,,,,,,,,,,,,,,,
1638094144.673065,55.000000,0.000000,4284.487305,4353.077148,4409.743652,4391.922852,4415.897461,4348.461426,4326.282227,4325.769043,4327.948730,4330.256348,4547.436035,4493.717773,4469.615234,4514.102539,0.000000,4.000000,100.000000,,,,0.000000,4.000000,4.000000,4.000000,4.000000,4.000000,4.000000,4.000000,4.000000,4.000000,4.000000,4.000000,4.000000,4.000000,4.000000,100.000000,,,,,,,,,,,,,,,,,,,,,,,,,,,,
1638094144.680874,56.000000,0.000000,4281.666504,4345.769043,4398.589844,4382.948730,4403.461426,4348.589844,4322.307617,4325.128418,4328.077148,4328.461426,4540.512695,4493.461426,4462.051270,4515.641113,0.000000,4.000000,100.000000,,,,0.000000,4.000000,4.000000,4.000000,4.000000,4.000000,4.000000,4.000000,4.000000,4.000000,4.000000,4.000000,4.000000,4.000000,4.000000,100.000000,,,,,,,,,,,,,,,,,14.000000,0.000000,0.149916,-0.717407,0.019470,-0.680054,0.953730,-0.228544,-0.038091,-35.816811,-14.941362,-11.066213
1638094144.688782,57.000000,0.000000,4281.410156,4337.051270,4393.974121,4379.102539,4394.230957,4348.333496,4312.948730,4324.615234,4324.743652,4321.410156,4528.846191,4492.051270,4459.358887,4520.256348,0.000000,4.000000,100.000000,,,,0.000000,4.000000,4.000000,4.000000,4.000000,4.000000,4.000000,4.000000,4.000000,4.000000,4.000000,4.000000,4.000000,4.000000,4.000000,100.000000,,,,,,,,,,,,,,,,,,,,,,,,,,,,
1638094144.696590,58.000000,0.000000,4291.922852,4344.871582,4395.000000,4382.563965,4405.256348,4348.589844,4316.153809,4324.230957,4327.692383,4324.102539,4522.563965,4496.922852,4470.128418,4524.871582,0.000000,4.000000,100.000000,,,,0.000000,4.000000,4.000000,4.000000,4.000000,4.000000,4.000000,4.000000,4.000000,4.000000,4.000000,4.000000,4.000000,4.000000,4.000000,100.000000,,,,,,,,,,,,,,,,,,,,,,,,,,,,
1638094144.704498,59.000000,0.000000,4295.512695,4350.769043,4392.820313,4381.538574,4404.615234,4348.333496,4320.769043,4324.102539,4332.307617,4330.641113,4522.436035,4499.743652,4481.666504,4525.641113,0.000000,4.000000,100.000000,,,,0.000000,4.000000,4.000000,4.000000,4.000000,4.000000,4.000000,4.000000,4.000000,4.000000,4.000000,4.000000,4.000000,4.000000,4.000000,100.000000,,,,,,,,,,,,,,,,,,,,,,,,,,,,
1638094144.712306,60.000000,0.000000,4294.871582,4348.974121,4397.948730,4379.743652,4392.692383,4348.461426,4320.128418,4326.282227,4336.282227,4328.333496,4522.179688,4503.205078,4488.461426,4527.820313,0.000000,4.000000,100.000000,,,,0.000000,4.000000,4.000000,4.000000,4.000000,4.000000,4.000000,4.000000,4.000000,4.000000,4.000000,4.000000,4.000000,4.000000,4.000000,100.000000,,,,,,,,,,,,,,,,,15.000000,0.000000,0.149907,-0.717346,0.019653,-0.680115,0.959590,-0.247589,-0.020510,-35.885128,-14.830559,-11.159592
1638094144.720015,61.000000,0.000000,4302.179688,4350.000000,4413.589844,4381.538574,4396.025879,4349.615234,4319.743652,4325.128418,4335.000000,4325.000000,4522.692383,4510.128418,4492.179688,4527.948730,0.000000,4.000000,100.000000,,,,0.000000,4.000000,4.000000,4.000000,4.000000,4.000000,4.000000,4.000000,4.000000,4.000000,4.000000,4.000000,4.000000,4.000000,4.000000,100.000000,,,,,,,,,,,,,,,,,,,,,,,,,,,,
1638094144.727823,62.000000,0.000000,4305.384766,4352.307617,4426.153809,4381.282227,4400.512695,4347.179688,4318.205078,4321.153809,4325.512695,4325.128418,4518.974121,4508.974121,4491.153809,4527.948730,0.000000,4.000000,100.000000,,,,0.000000,4.000000,4.000000,4.000000,4.000000,4.000000,4.000000,4.000000,4.000000,4.000000,4.000000,4.000000,4.000000,4.000000,4.000000,100.000000,,,,,,,,,,,,,,,,,,,,,,,,,,,,
1638094144.735531,63.000000,0.000000,4305.256348,4351.153809,4426.025879,4381.410156,4391.922852,4347.307617,4319.871582,4320.512695,4325.384766,4324.615234,4511.666504,4506.538574,4488.205078,4532.436035,0.000000,4.000000,100.000000,,,,0.000000,4.000000,4.000000,4.000000,4.000000,4.000000,4.000000,4.000000,4.000000,4.000000,4.000000,4.000000,4.000000,4.000000,4.000000,100.000000,,,,,,,,,,,,,,,,,,,,,,,,,,,,
1638094144.743339,64.000000,0.000000,4309.615234,4346.153809,4415.256348,4382.051270,4389.230957,4352.307617,4327.436035,4325.384766,4337.436035,4325.512695,4507.948730,4510.769043,4482.692383,4530.512695,2558.000000,4.000000,100.000000,,,,0.000000,4.000000,4.000000,4.000000,4.000000,4.000000,4.000000,4.000000,4.000000,4.000000,4.000000,4.000000,4.000000,4.000000,4.000000,100.000000,,,,,,,,,,,,,,,,,16.000000,0.000000,0.149589,-0.717346,0.019958,-0.680176,0.955683,-0.234892,-0.030277,-35.979950,-14.697503,-11.110299
1638094144.751048,65.000000,0.000000,4303.589844,4341.410156,4401.794922,4379.743652,4395.256348,4348.461426,4326.922852,4327.820313,4335.512695,4326.153809,4508.077148,4508.589844,4475.128418,4521.025879,2494.000000,4.000000,100.000000,,,,0.000000,4.000000,4.000000,4.000000,4.000000,4.000000,4.000000,4.000000,4.000000,4.000000,4.000000,4.000000,4.000000,4.000000,4.000000,100.000000,,,,,,,,,,,,,,,,,,,,,,,,,,,,
1638094144.758956,66.000000,0.000000,4294.102539,4341.282227,4393.717773,4380.641113,4396.538574,4343.461426,4323.333496,4315.769043,4322.307617,4323.077148,4503.717773,4500.000000,4473.077148,4517.436035,2449.000000,4.000000,100.000000,,,,0.000000,4.000000,4.000000,4.000000,4.000000,4.000000,4.000000,4.000000,4.000000,4.000000,4.000000,4.000000,4.000000,4.000000,4.000000,100.000000,,,,,,,,,,,,,,,,,,,,,,,,,,,,
1638094144.766764,67.000000,0.000000,4301.153809,4345.512695,4390.000000,4383.205078,4397.563965,4349.615234,4327.563965,4320.256348,4326.794922,4325.000000,4502.307617,4505.641113,4478.333496,4525.384766,2443.000000,4.000000,100.000000,,,,0.000000,4.000000,4.000000,4.000000,4.000000,4.000000,4.000000,4.000000,4.000000,4.000000,4.000000,4.000000,4.000000,4.000000,4.000000,100.000000,,,,,,,,,,,,,,,,,,,,,,,,,,,,
1638094144.774672,68.000000,0.000000,4305.769043,4345.128418,4386.153809,4379.358887,4398.589844,4349.358887,4328.717773,4375.256348,4335.512695,4328.461426,4514.743652,4525.769043,4480.384766,4531.153809,2326.000000,4.000000,100.000000,,,,0.000000,4.000000,4.000000,4.000000,4.000000,4.000000,4.000000,4.000000,4.000000,4.000000,4.000000,4.000000,4.000000,4.000000,4.000000,100.000000,,,,,,,,,,,,,,,,,17.000000,0.000000,0.149320,-0.717346,0.019897,-0.680237,0.958613,-0.214870,-0.029300,-35.915287,-14.677752,-11.165936
1638094144.782480,69.000000,0.000000,4297.948730,4339.487305,4383.717773,4376.025879,4395.256348,4337.948730,4325.641113,4425.897461,4328.589844,4325.512695,4527.820313,4540.000000,4478.461426,4530.256348,2289.000000,4.000000,100.000000,,,,0.000000,4.000000,4.000000,4.000000,4.000000,4.000000,4.000000,4.000000,4.000000,4.000000,4.000000,4.000000,4.000000,4.000000,4.000000,100.000000,,,,,,,,,,,,,,,,,,,,,,,,,,,,
1638094144.790288,70.000000,0.000000,4301.153809,4342.179688,4380.256348,4381.153809,4394.615234,4340.641113,4330.897461,4412.948730,4325.128418,4323.461426,4522.948730,4538.846191,4484.615234,4530.256348,2292.000000,4.000000,100.000000,,,,0.000000,4.000000,4.000000,4.000000,4.000000,4.000000,4.000000,4.000000,4.000000,4.000000,4.000000,4.000000,4.000000,4.000000,4.000000,100.000000,,,,,,,,,,,,,,,,,,,,,,,,,,,,
1638094144.797997,71.000000,0.000000,4312.563965,4351.794922,4376.153809,4386.153809,4400.000000,4352.307617,4341.410156,4385.897461,4334.230957,4328.461426,4511.538574,4531.922852,4490.384766,4530.641113,2327.000000,4.000000,100.000000,,,,0.000000,4.000000,4.000000,4.000000,4.000000,4.000000,4.000000,4.000000,4.000000,4.000000,4.000000,4.000000,4.000000,4.000000,4.000000,100.000000,,,,,,,,,,,,,,,,,,,,,,,,,,,,
1638094144.805805,72.000000,0.000000,4312.563965,4352.436035,4369.871582,4383.461426,4400.384766,4351.922852,4343.589844,4385.256348,4339.615234,4332.563965,4510.256348,4526.794922,4482.307617,4526.282227,2406.000000,4.000000,100.000000,,,,0.000000,4.000000,4.000000,4.000000,4.000000,4.000000,4.000000,4.000000,4.000000,4.000000,4.000000,4.000000,4.000000,4.000000,4.000000,100.000000,,,,,,,,,,,,,,,,,18.000000,0.000000,0.149074,-0.717346,0.019653,-0.680298,0.965450,-0.222683,-0.025394,-35.790424,-14.843311,-11.116009
1638094144.813513,73.000000,0.000000,4308.717773,4349.358887,4365.512695,4381.153809,4400.256348,4349.871582,4342.179688,4375.256348,4339.358887,4329.615234,4510.769043,4521.794922,4478.333496,4528.205078,2378.000000,4.000000,100.000000,,,,0.000000,4.000000,4.000000,4.000000,4.000000,4.000000,4.000000,4.000000,4.000000,4.000000,4.000000,4.000000,4.000000,4.000000,4.000000,100.000000,,,,,,,,,,,,,,,,,,,,,,,,,,,,
1638094144.821421,74.000000,0.000000,4311.794922,4353.461426,4366.025879,4384.615234,4401.538574,4349.871582,4339.871582,4362.820313,4335.128418,4326.538574,4503.846191,4522.051270,4480.512695,4538.846191,2660.000000,4.000000,100.000000,,,,0.000000,4.000000,4.000000,4.000000,4.000000,4.000000,4.000000,4.000000,4.000000,4.000000,4.000000,4.000000,4.000000,4.000000,4.000000,100.000000,,,,,,,,,,,,,,,,,,,,,,,,,,,,
1638094144.829230,75.000000,0.000000,4316.025879,4357.948730,4364.743652,4389.230957,4399.230957,4348.461426,4333.974121,4375.641113,4326.025879,4323.333496,4500.897461,4528.077148,4478.205078,4540.769043,2835.000000,4.000000,100.000000,,,,0.000000,4.000000,4.000000,4.000000,4.000000,4.000000,4.000000,4.000000,4.000000,4.000000,4.000000,4.000000,4.000000,4.000000,4.000000,100.000000,,,,,,,,,,,,,,,,,,,,,,,,,,,,
1638094144.837138,76.000000,0.000000,4316.794922,4359.487305,4359.615234,4390.256348,4403.077148,4350.128418,4333.974121,4383.589844,4323.974121,4319.487305,4507.051270,4529.230957,4480.897461,4540.128418,3129.000000,4.000000,100.000000,,,,0.000000,4.000000,4.000000,4.000000,4.000000,4.000000,4.000000,4.000000,4.000000,4.000000,4.000000,4.000000,4.000000,4.000000,4.000000,100.000000,,,,,,,,,,,,,,,,,19.000000,0.000000,0.149399,-0.717285,0.019409,-0.680298,0.964473,-0.231962,-0.027835,-35.861385,-14.942313,-11.121075
1638094144.844946,77.000000,0.000000,4313.974121,4356.282227,4349.487305,4386.153809,4404.487305,4346.153809,4334.487305,4370.128418,4324.743652,4317.820313,4504.871582,4524.230957,4483.846191,4541.153809,3500.000000,4.000000,100.000000,,,,0.000000,4.000000,4.000000,4.000000,4.000000,4.000000,4.000000,4.000000,4.000000,4.000000,4.000000,4.000000,4.000000,4.000000,4.000000,100.000000,,,,,,,,,,,,,,,,,,,,,,,,,,,,
1638094144.852854,78.000000,0.000000,4310.641113,4349.358887,4341.538574,4382.563965,4395.512695,4333.077148,4329.230957,4360.256348,4318.589844,4317.051270,4492.563965,4516.922852,4475.000000,4537.692383,2660.000000,4.000000,100.000000,,,,0.000000,4.000000,4.000000,4.000000,4.000000,4.000000,4.000000,4.000000,4.000000,4.000000,4.000000,4.000000,4.000000,4.000000,4.000000,100.000000,,,,,,,,,,,,,,,,,,,,,,,,,,,,
1638094144.860662,79.000000,0.000000,4314.487305,4350.769043,4342.820313,4381.922852,4395.512695,4335.512695,4331.410156,4360.384766,4316.153809,4316.538574,4486.538574,4511.794922,4471.153809,4539.871582,2835.000000,4.000000,100.000000,,,,0.000000,4.000000,4.000000,4.000000,4.000000,4.000000,4.000000,4.000000,4.000000,4.000000,4.000000,4.000000,4.000000,4.000000,4.000000,100.000000,,,,,,,,,,,,,,,,,,,,,,,,,,,,
1638094144.868570,80.000000,0.000000,4321.794922,4354.743652,4345.128418,4383.205078,4405.384766,4347.820313,4337.692383,4358.077148,4322.948730,4318.846191,4492.563965,4510.769043,4477.820313,4543.589844,3129.000000,4.000000,100.000000,,,,0.000000,4.000000,4.000000,4.000000,4.000000,4.000000,4.000000,4.000000,4.000000,4.000000,4.000000,4.000000,4.000000,4.000000,4.000000,100.000000,,,,,,,,,,,,,,,,,20.000000,0.000000,0.149137,-0.717346,0.019165,-0.680298,0.951288,-0.232939,-0.032230,-35.875244,-14.848082,-11.075634
1638094144.876379,81.000000,0.000000,4321.666504,4354.487305,4338.077148,4386.282227,4405.256348,4344.871582,4334.358887,4348.974121,4328.589844,4322.436035,4499.102539,4508.589844,4478.461426,4540.256348,3500.000000,4.000000,100.000000,,,,0.000000,4.000000,4.000000,4.000000,4.000000,4.000000,4.000000,4.000000,4.000000,4.000000,4.000000,4.000000,4.000000,4.000000,4.000000,100.000000,,,,,,,,,,,,,,,,,,,,,,,,,,,,
1638094144.884287,82.000000,0.000000,4320.128418,4357.692383,4332.307617,4387.307617,4399.358887,4342.820313,4335.128418,4341.538574,4327.436035,4325.384766,4497.179688,4507.692383,4475.641113,4536.153809,2660.000000,4.000000,100.000000,,,,0.000000,4.000000,4.000000,4.000000,4.000000,4.000000,4.000000,4.000000,4.000000,4.000000,4.000000,4.000000,4.000000,4.000000,4.000000,100.000000,,,,,,,,,,,,,,,,,,,,,,,,,,,,
1638094144.892095,83.000000,0.000000,4325.769043,4361.025879,4337.051270,4386.025879,4403.717773,4352.692383,4344.230957,4343.589844,4327.563965,4327.051270,4494.230957,4511.794922,4477.436035,4538.974121,2835.000000,4.000000,100.000000,,,,0.000000,4.000000,4.000000,4.000000,4.000000,4.000000,4.000000,4.000000,4.000000,4.000000,4.000000,4.000000,4.000000,4.000000,4.000000,100.000000,,,,,,,,,,,,,,,,,,,,,,,,,,,,
1638094144.899803,84.000000,0.000000,4328.461426,4356.794922,4338.333496,4388.333496,4411.538574,4353.974121,4344.487305,4347.051270,4330.384766,4321.282227,4494.487305,4511.666504,4477.692383,4533.846191,3129.000000,4.000000,100.000000,,,,0.000000,4.000000,4.000000,4.000000,4.000000,4.000000,4.000000,4.000000,4.000000,4.000000,4.000000,4.000000,4.000000,4.000000,4.000000,100.000000,,,,,,,,,,,,,,,,,21.000000,0.000000,0.149416,-0.717346,0.019165,-0.680237,0.947381,-0.239775,-0.018069,-36.021053,-14.896607,-11.201404
1638094144.907611,85.000000,0.000000,4324.230957,4355.512695,4333.717773,4389.487305,4410.256348,4347.563965,4343.205078,4342.692383,4328.461426,4314.871582,4493.461426,4508.077148,4474.615234,4526.922852,3500.000000,4.000000,100.000000,,,,0.000000,4.000000,4.000000,4.000000,4.000000,4.000000,4.000000,4.000000,4.000000,4.000000,4.000000,4.000000,4.000000,4.000000,4.000000,100.000000,,,,,,,,,,,,,,,,,,,,,,,,,,,,
1638094144.915520,86.000000,0.000000,4326.153809,4357.051270,4333.077148,4384.743652,4402.179688,4349.615234,4349.487305,4339.615234,4325.000000,4320.384766,4492.051270,4511.538574,4475.512695,4530.128418,2660.000000,4.000000,100.000000,,,,0.000000,4.000000,4.000000,4.000000,4.000000,4.000000,4.000000,4.000000,4.000000,4.000000,4.000000,4.000000,4.000000,4.000000,4.000000,100.000000,,,,,,,,,,,,,,,,,,,,,,,,,,,,
1638094144.923328,87.000000,0.000000,4333.589844,4356.025879,4336.922852,4381.922852,4405.000000,4354.230957,4352.948730,4343.077148,4332.307617,4328.461426,4497.692383,4513.333496,4479.358887,4531.666504,2835.000000,4.000000,100.000000,,,,0.000000,4.000000,4.000000,4.000000,4.000000,4.000000,4.000000,4.000000,4.000000,4.000000,4.000000,4.000000,4.000000,4.000000,4.000000,100.000000,,,,,,,,,,,,,,,,,,,,,,,,,,,,
1638094144.931036,88.000000,0.000000,4335.128418,4358.205078,4333.333496,4384.615234,4414.487305,4351.794922,4350.256348,4340.897461,4337.820313,4327.307617,4498.974121,4507.820313,4479.871582,4526.538574,3129.000000,4.000000,100.000000,,,,0.000000,4.000000,4.000000,4.000000,4.000000,4.000000,4.000000,4.000000,4.000000,4.000000,4.000000,4.000000,4.000000,4.000000,4.000000,100.000000,,,,,,,,,,,,,,,,,22.000000,0.000000,0.149099,-0.717407,0.019348,-0.680237,0.949823,-0.225125,-0.033696,-35.952282,-14.706946,-11.281263
1638094144.938844,89.000000,0.000000,4333.974121,4359.871582,4327.307617,4386.282227,4408.589844,4349.230957,4348.846191,4333.974121,4330.769043,4321.538574,4492.051270,4507.307617,4478.205078,4524.871582,3500.000000,4.000000,100.000000,,,,0.000000,4.000000,4.000000,4.000000,4.000000,4.000000,4.000000,4.000000,4.000000,4.000000,4.000000,4.000000,4.000000,4.000000,4.000000,100.000000,,,,,,,,,,,,,,,,,,,,,,,,,,,,
1638094144.946553,90.000000,0.000000,4335.000000,4358.205078,4330.769043,4387.051270,4400.641113,4350.512695,4349.871582,4334.487305,4324.871582,4318.974121,4495.769043,4510.000000,4475.512695,4525.897461,2660.000000,4.000000,100.000000,,,,0.000000,4.000000,4.000000,4.000000,4.000000,4.000000,4.000000,4.000000,4.000000,4.000000,4.000000,4.000000,4.000000,4.000000,4.000000,100.000000,,,,,,,,,,,,,,,,,,,,,,,,,,,,
1638094144.954361,91.000000,0.000000,4337.948730,4358.461426,4332.563965,4386.538574,4407.948730,4349.487305,4350.000000,4341.666504,4326.794922,4323.717773,4503.205078,4507.692383,4477.948730,4524.358887,2835.000000,4.000000,100.000000,,,,0.000000,4.000000,4.000000,4.000000,4.000000,4.000000,4.000000,4.000000,4.000000,4.000000,4.000000,4.000000,4.000000,4.000000,4.000000,100.000000,,,,,,,,,,,,,,,,,,,,,,,,,,,,
1638094144.962069,92.000000,0.000000,4337.948730,4360.384766,4328.846191,4382.820313,4415.256348,4344.230957,4351.282227,4345.641113,4327.563965,4326.538574,4498.717773,4509.230957,4482.307617,4525.000000,3129.000000,4.000000,100.000000,,,,0.000000,4.000000,4.000000,4.000000,4.000000,4.000000,4.000000,4.000000,4.000000,4.000000,4.000000,4.000000,4.000000,4.000000,4.000000,100.000000,,,,,,,,,,,,,,,,,23.000000,0.000000,0.148835,-0.717346,0.019348,-0.680359,0.963985,-0.237822,-0.035161,-35.973721,-14.819585,-11.236470
1638094144.969877,93.000000,0.000000,4332.307617,4356.922852,4323.333496,4380.128418,4406.922852,4340.897461,4351.282227,4342.563965,4321.922852,4317.051270,4488.205078,4507.820313,4468.717773,4520.384766,3500.000000,4.000000,100.000000,,,,0.000000,4.000000,4.000000,4.000000,4.000000,4.000000,4.000000,4.000000,4.000000,4.000000,4.000000,4.000000,4.000000,4.000000,4.000000,100.000000,,,,,,,,,,,,,,,,,,,,,,,,,,,,
1638094144.977586,94.000000,0.000000,4326.794922,4352.307617,4316.666504,4380.897461,4394.871582,4345.000000,4350.128418,4340.384766,4318.077148,4308.717773,4487.948730,4495.384766,4441.025879,4510.384766,2660.000000,4.000000,100.000000,,,,0.000000,4.000000,4.000000,4.000000,4.000000,4.000000,4.000000,4.000000,4.000000,4.000000,4.000000,4.000000,4.000000,4.000000,4.000000,100.000000,,,,,,,,,,,,,,,,,,,,,,,,,,,,
1638094144.985394,95.000000,0.000000,4328.205078,4356.538574,4310.769043,4381.282227,4401.538574,4350.128418,4351.666504,4342.563965,4323.205078,4308.974121,4489.871582,4492.436035,4424.230957,4507.563965,2835.000000,4.000000,100.000000,,,,0.000000,4.000000,4.000000,4.000000,4.000000,4.000000,4.000000,4.000000,4.000000,4.000000,4.000000,4.000000,4.000000,4.000000,4.000000,100.000000,,,,,,,,,,,,,,,,,,,,,,,,,,,,
1638094144.993102,96.000000,0.000000,4329.615234,4355.256348,4311.025879,4376.922852,4414.230957,4350.128418,4350.897461,4343.846191,4327.948730,4312.436035,4484.358887,4500.897461,4417.436035,4508.717773,3129.000000,4.000000,100.000000,,,,0.000000,4.000000,4.000000,4.000000,4.000000,4.000000,4.000000,4.000000,4.000000,4.000000,4.000000,4.000000,4.000000,4.000000,4.000000,100.000000,1.000000,25.000000,4.000000,4.000000,1.000000,4.000000,4.000000,4.000000,1.000000,1.000000,4.000000,4.000000,4.000000,4.000000,4.000000,4.000000,24.000000,0.000000,0.148850,-0.717285,0.019348,-0.680420,0.954218,-0.227567,-0.030765,-36.109680,-14.837626,-11.312823
1638094145.000910,97.000000,0.000000,4326.794922,4345.128418,4311.538574,4369.487305,4407.436035,4350.384766,4345.384766,4340.769043,4325.128418,4315.512695,4479.102539,4500.256348,4402.563965,4506.794922,3500.000000,4.000000,100.000000,,,,0.000000,4.000000,4.000000,4.000000,4.000000,4.000000,4.000000,4.000000,4.000000,4.000000,4.000000,4.000000,4.000000,4.000000,4.000000,100.000000,,,,,,,,,,,,,,,,,,,,,,,,,,,,
1638094145.008619,98.000000,0.000000,4329.871582,4351.538574,4310.641113,4372.307617,4400.769043,4350.641113,4339.743652,4336.153809,4327.307617,4315.769043,4476.922852,4491.538574,4388.205078,4506.410156,2660.000000,4.000000,100.000000,,,,0.000000,4.000000,4.000000,4.000000,4.000000,4.000000,4.000000,4.000000,4.000000,4.000000,4.000000,4.000000,4.000000,4.000000,4.000000,100.000000,,,,,,,,,,,,,,,,,,,,,,,,,,,,
1638094145.016527,99.000000,0.000000,4333.077148,4367.820313,4308.077148,4380.256348,4409.743652,4345.641113,4335.897461,4330.512695,4326.794922,4311.666504,4474.230957,4490.384766,4382.436035,4507.179688,2835.000000,4.000000,100.000000,,,,0.000000,4.000000,4.000000,4.000000,4.000000,4.000000,4.000000,4.000000,4.000000,4.000000,4.000000,4.000000,4.000000,4.000000,4.000000,100.000000,,,,,,,,,,,,,,,,,,,,,,,,,,,,
1638094145.024335,100.000000,0.000000,4330.000000,4366.153809,4300.384766,4376.153809,4411.282227,4341.538574,4334.358887,4328.717773,4315.897461,4306.282227,4472.436035,4494.743652,4379.871582,4503.077148,3129.000000,4.000000,100.000000,,,,0.000000,4.000000,4.000000,4.000000,4.000000,4.000000,4.000000,4.000000,4.000000,4.000000,4.000000,4.000000,4.000000,4.000000,4.000000,100.000000,,,,,,,,,,,,,,,,,25.000000,0.000000,0.148594,-0.717224,0.019287,-0.680542,0.956660,-0.245635,-0.030277,-36.065380,-14.737197,-11.464874
1638094145.032243,101.000000,0.000000,4325.641113,4354.743652,4293.717773,4366.282227,4399.871582,4341.794922,4333.461426,4333.717773,4315.128418,4305.384766,4472.563965,4490.641113,4379.743652,4497.948730,3500.000000,4.000000,100.000000,,,,0.000000,4.000000,4.000000,4.000000,4.000000,4.000000,4.000000,4.000000,4.000000,4.000000,4.000000,4.000000,4.000000,4.000000,4.000000,100.000000,,,,,,,,,,,,,,,,,,,,,,,,,,,,
1638094145.040051,102.000000,0.000000,4318.205078,4350.384766,4286.922852,4363.589844,4393.461426,4336.282227,4328.333496,4326.666504,4317.179688,4301.666504,4459.615234,4473.333496,4376.538574,4487.820313,2660.000000,4.000000,100.000000,,,,0.000000,4.000000,4.000000,4.000000,4.000000,4.000000,4.000000,4.000000,4.000000,4.000000,4.000000,4.000000,4.000000,4.000000,4.000000,100.000000,,,,,,,,,,,,,,,,,,,,,,,,,,,,
1638094145.047959,103.000000,0.000000,4314.102539,4349.358887,4279.871582,4362.307617,4394.358887,4332.820313,4326.794922,4311.666504,4308.205078,4296.282227,4445.000000,4461.153809,4373.974121,4480.897461,2835.000000,4.000000,100.000000,,,,0.000000,4.000000,4.000000,4.000000,4.000000,4.000000,4.000000,4.000000,4.000000,4.000000,4.000000,4.000000,4.000000,4.000000,4.000000,100.000000,,,,,,,,,,,,,,,,,,,,,,,,,,,,
1638094145.055768,104.000000,0.000000,4318.205078,4350.128418,4278.589844,4361.922852,4396.153809,4338.077148,4336.410156,4313.461426,4305.000000,4298.974121,4452.051270,4469.358887,4383.974121,4482.692383,3129.000000,4.000000,100.000000,,,,0.000000,4.000000,4.000000,4.000000,4.000000,4.000000,4.000000,4.000000,4.000000,4.000000,4.000000,4.000000,4.000000,4.000000,4.000000,100.000000,,,,,,,,,,,,,,,,,26.000000,0.000000,0.148593,-0.717163,0.019409,-0.680603,0.962031,-0.233915,-0.025882,-36.025509,-14.763477,-11.485054
1638094145.063676,105.000000,0.000000,4321.794922,4351.025879,4280.256348,4364.615234,4396.794922,4337.179688,4342.179688,4321.153809,4309.358887,4302.948730,4461.794922,4476.666504,4400.000000,4482.179688,3500.000000,4.000000,100.000000,,,,0.000000,4.000000,4.000000,4.000000,4.000000,4.000000,4.000000,4.000000,4.000000,4.000000,4.000000,4.000000,4.000000,4.000000,4.000000,100.000000,,,,,,,,,,,,,,,,,,,,,,,,,,,,
1638094145.071484,106.000000,0.000000,4320.769043,4350.641113,4282.436035,4365.384766,4395.641113,4333.589844,4339.102539,4320.512695,4311.794922,4301.153809,4457.820313,4472.051270,4408.974121,4481.794922,2660.000000,4.000000,100.000000,,,,0.000000,4.000000,4.000000,4.000000,4.000000,4.000000,4.000000,4.000000,4.000000,4.000000,4.000000,4.000000,4.000000,4.000000,4.000000,100.000000,,,,,,,,,,,,,,,,,,,,,,,,,,,,
1638094145.079392,107.000000,0.000000,4324.743652,4351.410156,4285.128418,4365.384766,4398.077148,4332.436035,4336.153809,4322.563965,4314.358887,4302.179688,4452.051270,4471.666504,4419.102539,4486.410156,2835.000000,4.000000,100.000000,,,,0.000000,4.000000,4.000000,4.000000,4.000000,4.000000,4.000000,4.000000,4.000000,4.000000,4.000000,4.000000,4.000000,4.000000,4.000000,100.000000,,,,,,,,,,,,,,,,,,,,,,,,,,,,
1638094145.087200,108.000000,0.000000,4333.589844,4354.358887,4290.128418,4367.948730,4400.897461,4330.000000,4335.512695,4327.948730,4321.153809,4309.743652,4461.153809,4480.512695,4437.692383,4493.846191,3129.000000,4.000000,100.000000,,,,0.000000,4.000000,4.000000,4.000000,4.000000,4.000000,4.000000,4.000000,4.000000,4.000000,4.000000,4.000000,4.000000,4.000000,4.000000,100.000000,,,,,,,,,,,,,,,,,27.000000,0.000000,0.148871,-0.717102,0.019531,-0.680603,0.960566,-0.224637,-0.021487,-35.856293,-14.803797,-11.403214
1638094145.094909,109.000000,0.000000,4340.384766,4358.205078,4295.512695,4368.077148,4400.512695,4328.333496,4337.307617,4327.436035,4323.333496,4310.384766,4470.641113,4489.615234,4445.769043,4496.282227,3500.000000,4.000000,100.000000,,,,0.000000,4.000000,4.000000,4.000000,4.000000,4.000000,4.000000,4.000000,4.000000,4.000000,4.000000,4.000000,4.000000,4.000000,4.000000,100.000000,,,,,,,,,,,,,,,,,,,,,,,,,,,,
1638094145.102717,110.000000,0.000000,4345.256348,4358.077148,4297.436035,4369.358887,4401.538574,4331.922852,4341.153809,4324.743652,4319.743652,4305.000000,4468.461426,4492.436035,4443.461426,4495.384766,2660.000000,4.000000,100.000000,,,,0.000000,4.000000,4.000000,4.000000,4.000000,4.000000,4.000000,4.000000,4.000000,4.000000,4.000000,4.000000,4.000000,4.000000,4.000000,100.000000,,,,,,,,,,,,,,,,,,,,,,,,,,,,
1638094145.110425,111.000000,0.000000,4346.282227,4357.051270,4296.922852,4374.102539,4404.102539,4338.205078,4343.589844,4326.922852,4320.384766,4306.794922,4467.436035,4490.897461,4449.102539,4497.307617,2835.000000,4.000000,100.000000,,,,0.000000,4.000000,4.000000,4.000000,4.000000,4.000000,4.000000,4.000000,4.000000,4.000000,4.000000,4.000000,4.000000,4.000000,4.000000,100.000000,,,,,,,,,,,,,,,,,,,,,,,,,,,,
1638094145.118233,112.000000,0.000000,4351.538574,4362.179688,4302.179688,4373.974121,4406.794922,4340.641113,4342.948730,4328.333496,4324.487305,4308.333496,4473.974121,4492.563965,4460.000000,4504.615234,3129.000000,4.000000,100.000000,,,,0.000000,4.000000,4.000000,4.000000,4.000000,4.000000,4.000000,4.000000,4.000000,4.000000,4.000000,4.000000,4.000000,4.000000,4.000000,100.000000,,,,,,,,,,,,,,,,,28.000000,0.000000,0.148885,-0.716980,0.019653,-0.680725,0.964473,-0.240752,-0.024905,-35.637329,-14.906750,-11.379560
1638094145.125942,113.000000,0.000000,4361.538574,4366.922852,4308.974121,4373.589844,4409.871582,4342.692383,4343.205078,4328.589844,4327.307617,4311.666504,4478.205078,4498.589844,4461.666504,4508.461426,3500.000000,4.000000,100.000000,,,,0.000000,4.000000,4.000000,4.000000,4.000000,4.000000,4.000000,4.000000,4.000000,4.000000,4.000000,4.000000,4.000000,4.000000,4.000000,100.000000,,,,,,,,,,,,,,,,,,,,,,,,,,,,
1638094145.133750,114.000000,0.000000,4363.461426,4367.563965,4309.871582,4381.538574,4415.128418,4348.846191,4348.333496,4334.358887,4332.307617,4320.641113,4477.948730,4504.871582,4461.025879,4505.128418,2660.000000,4.000000,100.000000,,,,0.000000,4.000000,4.000000,4.000000,4.000000,4.000000,4.000000,4.000000,4.000000,4.000000,4.000000,4.000000,4.000000,4.000000,4.000000,100.000000,,,,,,,,,,,,,,,,,,,,,,,,,,,,
1638094145.141458,115.000000,0.000000,4360.384766,4366.410156,4310.897461,4385.128418,4415.512695,4350.769043,4353.461426,4340.128418,4337.820313,4322.563965,4479.358887,4510.000000,4462.820313,4507.692383,2835.000000,4.000000,100.000000,,,,0.000000,4.000000,4.000000,4.000000,4.000000,4.000000,4.000000,4.000000,4.000000,4.000000,4.000000,4.000000,4.000000,4.000000,4.000000,100.000000,,,,,,,,,,,,,,,,,,,,,,,,,,,,
1638094145.149266,116.000000,0.000000,4357.307617,4358.333496,4310.897461,4373.461426,4406.922852,4342.307617,4346.666504,4335.000000,4332.307617,4310.769043,4477.563965,4506.666504,4456.025879,4506.794922,3129.000000,4.000000,100.000000,,,,0.000000,4.000000,4.000000,4.000000,4.000000,4.000000,4.000000,4.000000,4.000000,4.000000,4.000000,4.000000,4.000000,4.000000,4.000000,100.000000,,,,,,,,,,,,,,,,,29.000000,0.000000,0.148877,-0.716980,0.019714,-0.680725,0.951288,-0.242705,-0.022952,-35.690262,-14.999409,-11.241604
1638094145.156975,117.000000,0.000000,4357.563965,4352.563965,4308.077148,4367.820313,4404.230957,4338.717773,4339.871582,4330.256348,4327.051270,4307.692383,4474.871582,4501.922852,4451.538574,4498.333496,3500.000000,4.000000,100.000000,,,,0.000000,4.000000,4.000000,4.000000,4.000000,4.000000,4.000000,4.000000,4.000000,4.000000,4.000000,4.000000,4.000000,4.000000,4.000000,100.000000,,,,,,,,,,,,,,,,,,,,,,,,,,,,
1638094145.164783,118.000000,0.000000,4363.077148,4363.077148,4312.948730,4379.230957,4409.871582,4344.358887,4349.102539,4337.179688,4334.871582,4321.153809,4481.153809,4506.410156,4458.717773,4499.743652,2660.000000,4.000000,100.000000,,,,0.000000,4.000000,4.000000,4.000000,4.000000,4.000000,4.000000,4.000000,4.000000,4.000000,4.000000,4.000000,4.000000,4.000000,4.000000,100.000000,,,,,,,,,,,,,,,,,,,,,,,,,,,,
1638094145.172491,119.000000,0.000000,4367.563965,4370.641113,4319.230957,4385.000000,4412.051270,4342.563965,4352.179688,4335.769043,4336.922852,4323.589844,4479.487305,4508.974121,4460.256348,4505.384766,2835.000000,4.000000,100.000000,,,,0.000000,4.000000,4.000000,4.000000,4.000000,4.000000,4.000000,4.000000,4.000000,4.000000,4.000000,4.000000,4.000000,4.000000,4.000000,100.000000,,,,,,,,,,,,,,,,,,,,,,,,,,,,
1638094145.180299,120.000000,0.000000,4367.179688,4363.846191,4317.436035,4378.717773,4408.974121,4339.102539,4341.538574,4326.538574,4333.077148,4316.538574,4474.358887,4504.487305,4455.512695,4503.717773,3129.000000,4.000000,100.000000,,,,0.000000,4.000000,4.000000,4.000000,4.000000,4.000000,4.000000,4.000000,4.000000,4.000000,4.000000,4.000000,4.000000,4.000000,4.000000,100.000000,,,,,,,,,,,,,,,,,30.000000,0.000000,0.149133,-0.717041,0.019775,-0.680603,0.973752,-0.239287,-0.026370,-35.737904,-14.916134,-11.284110
1638094145.188008,121.000000,0.000000,4369.358887,4363.077148,4321.025879,4378.461426,4411.025879,4342.436035,4342.948730,4331.410156,4334.102539,4320.641113,4484.230957,4507.692383,4458.846191,4504.358887,3500.000000,4.000000,100.000000,,,,0.000000,4.000000,4.000000,4.000000,4.000000,4.000000,4.000000,4.000000,4.000000,4.000000,4.000000,4.000000,4.000000,4.000000,4.000000,100.000000,,,,,,,,,,,,,,,,,,,,,,,,,,,,
1638094145.195916,122.000000,0.000000,4376.025879,4370.512695,4331.410156,4384.871582,4414.871582,4344.743652,4352.307617,4336.794922,4333.205078,4323.077148,4491.282227,4510.897461,4462.307617,4507.436035,2660.000000,4.000000,100.000000,,,,0.000000,4.000000,4.000000,4.000000,4.000000,4.000000,4.000000,4.000000,4.000000,4.000000,4.000000,4.000000,4.000000,4.000000,4.000000,100.000000,,,,,,,,,,,,,,,,,,,,,,,,,,,,
1638094145.203724,123.000000,0.000000,4374.487305,4370.512695,4329.358887,4385.000000,4412.948730,4341.410156,4346.666504,4323.461426,4324.615234,4313.717773,4479.102539,4498.589844,4453.205078,4498.589844,2835.000000,4.000000,100.000000,,,,0.000000,4.000000,4.000000,4.000000,4.000000,4.000000,4.000000,4.000000,4.000000,4.000000,4.000000,4.000000,4.000000,4.000000,4.000000,100.000000,,,,,,,,,,,,,,,,,,,,,,,,,,,,
1638094145.211532,124.000000,0.000000,4367.179688,4364.615234,4321.922852,4380.641113,4410.128418,4340.512695,4338.461426,4310.512695,4318.461426,4306.538574,4469.871582,4488.461426,4444.230957,4488.589844,3129.000000,4.000000,100.000000,,,,0.000000,4.000000,4.000000,4.000000,4.000000,4.000000,4.000000,4.000000,4.000000,4.000000,4.000000,4.000000,4.000000,4.000000,4.000000,100.000000,,,,,,,,,,,,,,,,,31.000000,0.000000,0.149126,-0.717102,0.019714,-0.680542,0.959101,-0.219265,-0.030765,-35.847446,-14.857854,-11.139032
1638094145.219240,125.000000,0.000000,4365.769043,4364.230957,4324.102539,4378.846191,4408.974121,4343.333496,4340.897461,4311.538574,4317.948730,4305.897461,4473.077148,4490.512695,4445.000000,4491.666504,3500.000000,4.000000,100.000000,,,,0.000000,4.000000,4.000000,4.000000,4.000000,4.000000,4.000000,4.000000,4.000000,4.000000,4.000000,4.000000,4.000000,4.000000,4.000000,100.000000,,,,,,,,,,,,,,,,,,,,,,,,,,,,
1638094145.227149,126.000000,0.000000,4369.871582,4366.410156,4328.974121,4380.384766,4411.922852,4341.922852,4341.153809,4312.563965,4318.077148,4303.205078,4472.948730,4489.487305,4445.897461,4491.666504,2660.000000,4.000000,100.000000,,,,0.000000,4.000000,4.000000,4.000000,4.000000,4.000000,4.000000,4.000000,4.000000,4.000000,4.000000,4.000000,4.000000,4.000000,4.000000,100.000000,,,,,,,,,,,,,,,,,,,,,,,,,,,,
1638094145.234957,127.000000,0.000000,4373.333496,4365.512695,4329.871582,4384.871582,4417.563965,4342.307617,4340.128418,4313.077148,4321.025879,4303.461426,4473.333496,4487.820313,4444.102539,4487.948730,100.000000,4.000000,100.000000,,,,0.000000,4.000000,4.000000,4.000000,4.000000,4.000000,4.000000,4.000000,4.000000,4.000000,4.000000,4.000000,4.000000,4.000000,4.000000,100.000000,,,,,,,,,,,,,,,,,,,,,,,,,,,,
1638094145.242865,0.000000,0.000000,4371.282227,4360.897461,4329.615234,4382.692383,4413.461426,4343.205078,4342.692383,4316.538574,4322.563965,4305.512695,4475.769043,4489.487305,4445.000000,4491.794922,2566.000000,4.000000,100.000000,,,,0.000000,4.000000,4.000000,4.000000,4.000000,4.000000,4.000000,4.000000,4.000000,4.000000,4.000000,4.000000,4.000000,4.000000,4.000000,100.000000,,,,,,,,,,,,,,,,,0.000000,0.000000,0.148848,-0.717163,0.019592,-0.680542,0.949335,-0.235380,-0.025882,-35.896034,-14.805402,-11.158463
1638094145.250673,1.000000,0.000000,4366.538574,4353.717773,4329.615234,4370.512695,4400.256348,4335.512695,4342.692383,4315.128418,4318.717773,4301.794922,4472.307617,4487.179688,4443.589844,4489.102539,2483.000000,4.000000,100.000000,,,,0.000000,4.000000,4.000000,4.000000,4.000000,4.000000,4.000000,4.000000,4.000000,4.000000,4.000000,4.000000,4.000000,4.000000,4.000000,100.000000,,,,,,,,,,,,,,,,,,,,,,,,,,,,
1638094145.258581,2.000000,0.000000,4366.410156,4352.179688,4332.948730,4369.615234,4397.436035,4331.153809,4339.487305,4325.256348,4317.820313,4299.743652,4472.051270,4486.282227,4439.743652,4478.974121,2448.000000,4.000000,100.000000,,,,0.000000,4.000000,4.000000,4.000000,4.000000,4.000000,4.000000,4.000000,4.000000,4.000000,4.000000,4.000000,4.000000,4.000000,4.000000,100.000000,,,,,,,,,,,,,,,,,,,,,,,,,,,,
1638094145.266389,3.000000,0.000000,4371.410156,4355.769043,4339.102539,4379.871582,4404.487305,4335.897461,4336.410156,4348.333496,4321.794922,4301.153809,4475.256348,4492.948730,4441.794922,4481.794922,2443.000000,4.000000,100.000000,,,,0.000000,4.000000,4.000000,4.000000,4.000000,4.000000,4.000000,4.000000,4.000000,4.000000,4.000000,4.000000,4.000000,4.000000,4.000000,100.000000,,,,,,,,,,,,,,,,,,,,,,,,,,,,
1638094145.274298,4.000000,0.000000,4377.179688,4358.333496,4343.461426,4379.358887,4404.230957,4336.794922,4335.384766,4356.025879,4323.077148,4307.307617,4476.794922,4495.769043,4447.307617,4490.641113,2321.000000,4.000000,100.000000,,,,0.000000,4.000000,4.000000,4.000000,4.000000,4.000000,4.000000,4.000000,4.000000,4.000000,4.000000,4.000000,4.000000,4.000000,4.000000,100.000000,,,,,,,,,,,,,,,,,1.000000,0.000000,0.148840,-0.717163,0.019653,-0.680542,0.956171,-0.231962,-0.025394,-35.906433,-14.808195,-11.142616
1638094145.282106,5.000000,0.000000,4381.666504,4358.589844,4346.025879,4374.487305,4403.846191,4334.743652,4336.282227,4346.666504,4326.538574,4314.230957,4481.666504,4495.641113,4449.230957,4491.922852,2287.000000,4.000000,100.000000,,,,0.000000,4.000000,4.000000,4.000000,4.000000,4.000000,4.000000,4.000000,4.000000,4.000000,4.000000,4.000000,4.000000,4.000000,4.000000,100.000000,,,,,,,,,,,,,,,,,,,,,,,,,,,,
1638094145.289814,6.000000,0.000000,4378.717773,4352.563965,4342.051270,4371.666504,4404.102539,4334.230957,4331.922852,4334.743652,4325.512695,4305.000000,4478.333496,4492.179688,4445.384766,4485.384766,2292.000000,4.000000,100.000000,,,,0.000000,4.000000,4.000000,4.000000,4.000000,4.000000,4.000000,4.000000,4.000000,4.000000,4.000000,4.000000,4.000000,4.000000,4.000000,100.000000,,,,,,,,,,,,,,,,,,,,,,,,,,,,
1638094145.297622,7.000000,0.000000,4373.461426,4344.871582,4337.820313,4365.641113,4397.692383,4333.589844,4322.179688,4325.641113,4315.000000,4290.769043,4462.563965,4481.666504,4439.230957,4476.794922,2326.000000,4.000000,100.000000,,,,0.000000,4.000000,4.000000,4.000000,4.000000,4.000000,4.000000,4.000000,4.000000,4.000000,4.000000,4.000000,4.000000,4.000000,4.000000,100.000000,,,,,,,,,,,,,,,,,,,,,,,,,,,,
1638094145.305331,8.000000,0.000000,4381.153809,4348.589844,4349.102539,4367.307617,4400.897461,4335.769043,4324.230957,4329.230957,4315.641113,4296.922852,4466.282227,4484.743652,4443.205078,4479.230957,2399.000000,4.000000,100.000000,,,,0.000000,4.000000,4.000000,4.000000,4.000000,4.000000,4.000000,4.000000,4.000000,4.000000,4.000000,4.000000,4.000000,4.000000,4.000000,100.000000,,,,,,,,,,,,,,,,,2.000000,0.000000,0.148861,-0.716980,0.019836,-0.680725,0.965450,-0.227567,-0.020022,-35.932453,-14.744042,-11.111688
1638094145.313139,9.000000,0.000000,4391.666504,4358.077148,4362.307617,4375.128418,4413.077148,4337.179688,4335.384766,4336.922852,4327.179688,4312.948730,4489.358887,4500.769043,4458.205078,4491.410156,2371.000000,4.000000,100.000000,,,,0.000000,4.000000,4.000000,4.000000,4.000000,4.000000,4.000000,4.000000,4.000000,4.000000,4.000000,4.000000,4.000000,4.000000,4.000000,100.000000,,,,,,,,,,,,,,,,,,,,,,,,,,,,
1638094145.320847,10.000000,0.000000,4391.410156,4356.410156,4364.358887,4373.333496,4413.717773,4338.589844,4334.230957,4331.922852,4330.641113,4315.128418,4494.102539,4500.128418,4464.358887,4493.974121,2665.000000,4.000000,100.000000,,,,0.000000,4.000000,4.000000,4.000000,4.000000,4.000000,4.000000,4.000000,4.000000,4.000000,4.000000,4.000000,4.000000,4.000000,4.000000,100.000000,,,,,,,,,,,,,,,,,,,,,,,,,,,,
1638094145.328655,11.000000,0.000000,4388.333496,4350.256348,4364.102539,4369.743652,4409.743652,4342.051270,4324.102539,4323.461426,4325.641113,4310.256348,4485.512695,4488.333496,4458.589844,4487.563965,2832.000000,4.000000,100.000000,,,,0.000000,4.000000,4.000000,4.000000,4.000000,4.000000,4.000000,4.000000,4.000000,4.000000,4.000000,4.000000,4.000000,4.000000,4.000000,100.000000,,,,,,,,,,,,,,,,,,,,,,,,,,,,
1638094145.336364,12.000000,0.000000,4390.000000,4351.794922,4367.820313,4371.153809,4411.410156,4336.666504,4320.897461,4324.743652,4324.487305,4312.179688,4487.692383,4490.000000,4457.820313,4488.846191,3129.000000,4.000000,100.000000,,,,0.000000,4.000000,4.000000,4.000000,4.000000,4.000000,4.000000,4.000000,4.000000,4.000000,4.000000,4.000000,4.000000,4.000000,4.000000,100.000000,,,,,,,,,,,,,,,,,3.000000,0.000000,0.149385,-0.716980,0.020081,-0.680603,0.962031,-0.227078,-0.021975,-35.989208,-14.686305,-11.033853
1638094145.344172,13.000000,0.000000,4391.666504,4351.153809,4366.794922,4368.461426,4404.743652,4325.384766,4321.153809,4327.692383,4326.025879,4316.666504,4492.948730,4495.384766,4461.794922,4493.333496,3496.000000,4.000000,100.000000,,,,0.000000,4.000000,4.000000,4.000000,4.000000,4.000000,4.000000,4.000000,4.000000,4.000000,4.000000,4.000000,4.000000,4.000000,4.000000,100.000000,,,,,,,,,,,,,,,,,,,,,,,,,,,,
1638094145.351880,14.000000,0.000000,4393.846191,4345.512695,4368.717773,4366.153809,4395.256348,4326.025879,4318.589844,4323.974121,4326.922852,4315.256348,4492.051270,4489.230957,4458.717773,4489.230957,2665.000000,4.000000,100.000000,,,,0.000000,4.000000,4.000000,4.000000,4.000000,4.000000,4.000000,4.000000,4.000000,4.000000,4.000000,4.000000,4.000000,4.000000,4.000000,100.000000,,,,,,,,,,,,,,,,,,,,,,,,,,,,
1638094145.359688,15.000000,0.000000,4396.922852,4348.717773,4378.846191,4369.358887,4402.948730,4333.333496,4318.974121,4320.256348,4326.153809,4311.025879,4488.461426,4487.307617,4456.410156,4482.692383,2832.000000,4.000000,100.000000,,,,0.000000,4.000000,4.000000,4.000000,4.000000,4.000000,4.000000,4.000000,4.000000,4.000000,4.000000,4.000000,4.000000,4.000000,4.000000,100.000000,,,,,,,,,,,,,,,,,,,,,,,,,,,,
1638094145.367397,16.000000,0.000000,4398.077148,4358.589844,4384.102539,4372.307617,4414.102539,4334.615234,4322.948730,4320.384766,4324.230957,4312.563965,4482.948730,4490.897461,4456.794922,4484.487305,0.000000,4.000000,100.000000,,,,0.000000,4.000000,4.000000,4.000000,4.000000,4.000000,4.000000,4.000000,4.000000,4.000000,4.000000,4.000000,4.000000,4.000000,4.000000,100.000000,,,,,,,,,,,,,,,,,4.000000,0.000000,0.149343,-0.717285,0.019836,-0.680298,0.956171,-0.213893,-0.041997,-36.023621,-14.734341,-10.997134
1638094145.375205,17.000000,0.000000,4398.333496,4361.025879,4381.153809,4372.307617,4414.615234,4337.436035,4325.512695,4320.256348,4324.743652,4314.358887,4478.333496,4485.641113,4449.743652,4485.384766,0.000000,4.000000,100.000000,,,,0.000000,4.000000,4.000000,4.000000,4.000000,4.000000,4.000000,4.000000,4.000000,4.000000,4.000000,4.000000,4.000000,4.000000,4.000000,100.000000,,,,,,,,,,,,,,,,,,,,,,,,,,,,
1638094145.382913,18.000000,0.000000,4398.974121,4354.871582,4380.512695,4370.384766,4409.871582,4342.436035,4326.025879,4321.025879,4326.282227,4311.025879,4476.025879,4482.692383,4444.358887,4478.717773,0.000000,4.000000,100.000000,,,,0.000000,4.000000,4.000000,4.000000,4.000000,4.000000,4.000000,4.000000,4.000000,4.000000,4.000000,4.000000,4.000000,4.000000,4.000000,100.000000,,,,,,,,,,,,,,,,,,,,,,,,,,,,
1638094145.390821,19.000000,0.000000,4400.256348,4347.436035,4388.333496,4368.974121,4405.384766,4341.794922,4326.025879,4325.641113,4326.282227,4309.358887,4474.487305,4487.563965,4448.461426,4476.666504,0.000000,4.000000,100.000000,,,,0.000000,4.000000,4.000000,4.000000,4.000000,4.000000,4.000000,4.000000,4.000000,4.000000,4.000000,4.000000,4.000000,4.000000,4.000000,100.000000,,,,,,,,,,,,,,,,,,,,,,,,,,,,
1638094145.398629,20.000000,0.000000,4400.641113,4345.256348,4391.282227,4368.461426,4403.717773,4337.051270,4325.000000,4324.615234,4320.769043,4310.769043,4475.128418,4484.743652,4449.230957,4478.846191,0.000000,4.000000,100.000000,,,,0.000000,4.000000,4.000000,4.000000,4.000000,4.000000,4.000000,4.000000,4.000000,4.000000,4.000000,4.000000,4.000000,4.000000,4.000000,100.000000,,,,,,,,,,,,,,,,,5.000000,0.000000,0.149052,-0.717529,0.019470,-0.680115,0.947381,-0.232450,-0.033207,-36.071259,-14.710907,-11.064087
1638094145.406438,21.000000,0.000000,4400.384766,4347.692383,4387.051270,4366.666504,4402.436035,4332.051270,4327.179688,4320.512695,4315.000000,4305.384766,4472.307617,4475.512695,4444.230957,4477.436035,0.000000,4.000000,100.000000,,,,0.000000,4.000000,4.000000,4.000000,4.000000,4.000000,4.000000,4.000000,4.000000,4.000000,4.000000,4.000000,4.000000,4.000000,4.000000,100.000000,,,,,,,,,,,,,,,,,,,,,,,,,,,,
1638094145.414146,22.000000,0.000000,4400.000000,4346.410156,4386.922852,4366.666504,4401.538574,4329.230957,4325.384766,4322.692383,4320.384766,4298.846191,4464.615234,4474.615234,4442.692383,4470.256348,0.000000,4.000000,100.000000,,,,0.000000,4.000000,4.000000,4.000000,4.000000,4.000000,4.000000,4.000000,4.000000,4.000000,4.000000,4.000000,4.000000,4.000000,4.000000,100.000000,,,,,,,,,,,,,,,,,,,,,,,,,,,,
1638094145.422054,23.000000,0.000000,4397.307617,4340.256348,4388.205078,4369.230957,4405.128418,4330.769043,4316.282227,4319.871582,4325.256348,4300.384766,4460.128418,4475.000000,4443.077148,4461.922852,0.000000,4.000000,100.000000,,,,0.000000,4.000000,4.000000,4.000000,4.000000,4.000000,4.000000,4.000000,4.000000,4.000000,4.000000,4.000000,4.000000,4.000000,4.000000,100.000000,,,,,,,,,,,,,,,,,,,,,,,,,,,,
1638094145.429862,24.000000,0.000000,4402.436035,4341.794922,4391.282227,4370.256348,4408.077148,4335.000000,4315.128418,4316.410156,4320.512695,4306.538574,4468.205078,4476.282227,4444.230957,4465.769043,0.000000,4.000000,100.000000,,,,0.000000,4.000000,4.000000,4.000000,4.000000,4.000000,4.000000,4.000000,4.000000,4.000000,4.000000,4.000000,4.000000,4.000000,4.000000,100.000000,,,,,,,,,,,,,,,,,6.000000,0.000000,0.148819,-0.717346,0.019470,-0.680359,0.962520,-0.235869,-0.039067,-36.064133,-14.723149,-11.141012
1638094145.437770,25.000000,0.000000,4410.897461,4344.102539,4397.820313,4367.051270,4404.743652,4331.538574,4318.205078,4318.974121,4316.153809,4306.282227,4475.384766,4479.487305,4446.794922,4477.692383,0.000000,4.000000,100.000000,,,,0.000000,4.000000,4.000000,4.000000,4.000000,4.000000,4.000000,4.000000,4.000000,4.000000,4.000000,4.000000,4.000000,4.000000,4.000000,100.000000,,,,,,,,,,,,,,,,,,,,,,,,,,,,
1638094145.445579,26.000000,0.000000,4410.512695,4341.025879,4404.615234,4365.641113,4403.333496,4324.102539,4313.974121,4316.153809,4318.461426,4300.769043,4466.794922,4478.461426,4444.871582,4476.410156,0.000000,4.000000,100.000000,,,,0.000000,4.000000,4.000000,4.000000,4.000000,4.000000,4.000000,4.000000,4.000000,4.000000,4.000000,4.000000,4.000000,4.000000,4.000000,100.000000,,,,,,,,,,,,,,,,,,,,,,,,,,,,
1638094145.453487,27.000000,0.000000,4412.948730,4346.666504,4410.641113,4371.410156,4409.487305,4327.307617,4313.461426,4316.794922,4321.538574,4304.487305,4459.358887,4483.077148,4441.538574,4473.974121,0.000000,4.000000,100.000000,,,,0.000000,4.000000,4.000000,4.000000,4.000000,4.000000,4.000000,4.000000,4.000000,4.000000,4.000000,4.000000,4.000000,4.000000,4.000000,100.000000,,,,,,,,,,,,,,,,,,,,,,,,,,,,
1638094145.461295,28.000000,0.000000,4423.205078,4354.871582,4420.256348,4376.025879,4413.333496,4335.641113,4323.077148,4321.794922,4321.282227,4311.153809,4464.358887,4493.846191,4445.769043,4482.820313,0.000000,4.000000,100.000000,,,,0.000000,4.000000,4.000000,4.000000,4.000000,4.000000,4.000000,4.000000,4.000000,4.000000,4.000000,4.000000,4.000000,4.000000,4.000000,100.000000,,,,,,,,,,,,,,,,,7.000000,0.000000,0.148237,-0.717407,0.019531,-0.680420,0.954218,-0.216335,-0.037114,-36.007721,-14.850835,-11.043577
1638094145.469203,29.000000,0.000000,4425.769043,4349.615234,4424.230957,4372.692383,4412.563965,4336.538574,4323.974121,4315.512695,4316.282227,4304.102539,4459.487305,4493.717773,4453.077148,4481.922852,0.000000,4.000000,100.000000,,,,0.000000,4.000000,4.000000,4.000000,4.000000,4.000000,4.000000,4.000000,4.000000,4.000000,4.000000,4.000000,4.000000,4.000000,4.000000,100.000000,,,,,,,,,,,,,,,,,,,,,,,,,,,,
1638094145.477011,30.000000,0.000000,4420.128418,4342.692383,4420.897461,4366.282227,4412.051270,4333.589844,4317.436035,4309.230957,4308.717773,4293.974121,4444.615234,4483.974121,4454.743652,4473.333496,0.000000,4.000000,100.000000,,,,0.000000,4.000000,4.000000,4.000000,4.000000,4.000000,4.000000,4.000000,4.000000,4.000000,4.000000,4.000000,4.000000,4.000000,4.000000,100.000000,,,,,,,,,,,,,,,,,,,,,,,,,,,,
1638094145.484720,31.000000,0.000000,4422.051270,4345.000000,4424.358887,4365.512695,4413.333496,4337.436035,4320.384766,4312.948730,4311.025879,4300.641113,4443.077148,4482.948730,4458.974121,4476.538574,0.000000,4.000000,100.000000,,,,0.000000,4.000000,4.000000,4.000000,4.000000,4.000000,4.000000,4.000000,4.000000,4.000000,4.000000,4.000000,4.000000,4.000000,4.000000,100.000000,,,,,,,,,,,,,,,,,,,,,,,,,,,,
1638094145.492528,32.000000,0.000000,4426.666504,4345.512695,4425.000000,4367.051270,4413.974121,4344.102539,4327.436035,4316.410156,4319.102539,4308.077148,4445.512695,4488.846191,4463.077148,4479.871582,0.000000,4.000000,100.000000,,,,0.000000,4.000000,4.000000,4.000000,4.000000,4.000000,4.000000,4.000000,4.000000,4.000000,4.000000,4.000000,4.000000,4.000000,4.000000,100.000000,1.000000,41.666668,4.000000,4.000000,1.000000,4.000000,4.000000,4.000000,3.000000,1.000000,4.000000,4.000000,4.000000,4.000000,4.000000,4.000000,8.000000,0.000000,0.148236,-0.717346,0.019653,-0.680481,0.945428,-0.229520,-0.029300,-36.056950,-14.865751,-11.105886
1638094145.500236,33.000000,0.000000,4425.641113,4340.769043,4420.128418,4365.897461,4411.025879,4344.487305,4330.256348,4326.153809,4316.282227,4299.230957,4441.666504,4490.128418,4454.743652,4475.000000,0.000000,4.000000,100.000000,,,,0.000000,4.000000,4.000000,4.000000,4.000000,4.000000,4.000000,4.000000,4.000000,4.000000,4.000000,4.000000,4.000000,4.000000,4.000000,100.000000,,,,,,,,,,,,,,,,,,,,,,,,,,,,
1638094145.508044,34.000000,0.000000,4424.743652,4340.641113,4422.948730,4365.641113,4409.871582,4341.922852,4327.436035,4338.333496,4309.743652,4294.487305,4441.794922,4488.717773,4450.384766,4478.333496,0.000000,4.000000,100.000000,,,,0.000000,4.000000,4.000000,4.000000,4.000000,4.000000,4.000000,4.000000,4.000000,4.000000,4.000000,4.000000,4.000000,4.000000,4.000000,100.000000,,,,,,,,,,,,,,,,,,,,,,,,,,,,
1638094145.515753,35.000000,0.000000,4426.025879,4346.666504,4425.256348,4367.179688,4411.410156,4341.153809,4325.769043,4336.410156,4311.922852,4298.205078,4439.743652,4487.179688,4452.563965,4481.794922,0.000000,4.000000,100.000000,,,,0.000000,4.000000,4.000000,4.000000,4.000000,4.000000,4.000000,4.000000,4.000000,4.000000,4.000000,4.000000,4.000000,4.000000,4.000000,100.000000,,,,,,,,,,,,,,,,,,,,,,,,,,,,
1638094145.523561,36.000000,0.000000,4429.358887,4350.897461,4417.051270,4369.615234,4410.000000,4340.256348,4330.256348,4336.794922,4322.179688,4298.717773,4436.538574,4490.256348,4448.846191,4481.282227,0.000000,4.000000,100.000000,,,,0.000000,4.000000,4.000000,4.000000,4.000000,4.000000,4.000000,4.000000,4.000000,4.000000,4.000000,4.000000,4.000000,4.000000,4.000000,100.000000,,,,,,,,,,,,,,,,,9.000000,0.000000,0.147916,-0.717407,0.019836,-0.680481,0.954218,-0.223172,-0.032719,-36.084587,-14.895843,-11.328631
1638094145.531269,37.000000,0.000000,4429.230957,4345.641113,4419.230957,4367.563965,4405.128418,4339.230957,4331.538574,4343.077148,4325.384766,4296.794922,4441.282227,4494.358887,4444.358887,4483.333496,0.000000,4.000000,100.000000,,,,0.000000,4.000000,4.000000,4.000000,4.000000,4.000000,4.000000,4.000000,4.000000,4.000000,4.000000,4.000000,4.000000,4.000000,4.000000,100.000000,,,,,,,,,,,,,,,,,,,,,,,,,,,,
1638094145.539077,38.000000,0.000000,4429.743652,4339.358887,4439.487305,4366.922852,4404.743652,4343.333496,4330.897461,4337.051270,4318.077148,4299.871582,4444.871582,4496.538574,4445.897461,4483.461426,0.000000,4.000000,100.000000,,,,0.000000,4.000000,4.000000,4.000000,4.000000,4.000000,4.000000,4.000000,4.000000,4.000000,4.000000,4.000000,4.000000,4.000000,4.000000,100.000000,,,,,,,,,,,,,,,,,,,,,,,,,,,,
1638094145.546786,39.000000,0.000000,4437.563965,4346.922852,4451.153809,4375.256348,4415.000000,4350.128418,4337.820313,4333.333496,4318.205078,4309.230957,4443.717773,4501.410156,4450.128418,4487.307617,0.000000,4.000000,100.000000,,,,0.000000,4.000000,4.000000,4.000000,4.000000,4.000000,4.000000,4.000000,4.000000,4.000000,4.000000,4.000000,4.000000,4.000000,4.000000,100.000000,,,,,,,,,,,,,,,,,,,,,,,,,,,,
1638094145.554594,40.000000,0.000000,4446.410156,4357.179688,4446.922852,4382.563965,4421.794922,4352.948730,4344.615234,4340.897461,4325.384766,4313.846191,4446.153809,4508.333496,4451.922852,4496.410156,0.000000,4.000000,100.000000,,,,0.000000,4.000000,4.000000,4.000000,4.000000,4.000000,4.000000,4.000000,4.000000,4.000000,4.000000,4.000000,4.000000,4.000000,4.000000,100.000000,,,,,,,,,,,,,,,,,10.000000,0.000000,0.147923,-0.717346,0.019897,-0.680542,0.962520,-0.216335,-0.043462,-36.159462,-15.039592,-11.379101
1638094145.562302,41.000000,0.000000,4447.179688,4356.410156,4440.256348,4382.051270,4415.641113,4351.282227,4344.743652,4343.077148,4328.333496,4311.922852,4448.077148,4509.871582,4454.358887,4497.436035,0.000000,4.000000,100.000000,,,,0.000000,4.000000,4.000000,4.000000,4.000000,4.000000,4.000000,4.000000,4.000000,4.000000,4.000000,4.000000,4.000000,4.000000,4.000000,100.000000,,,,,,,,,,,,,,,,,,,,,,,,,,,,
1638094145.570110,42.000000,0.000000,4444.487305,4356.282227,4436.025879,4381.794922,4411.922852,4351.282227,4348.333496,4339.871582,4332.307617,4311.922852,4447.948730,4508.846191,4455.000000,4491.922852,0.000000,4.000000,100.000000,,,,0.000000,4.000000,4.000000,4.000000,4.000000,4.000000,4.000000,4.000000,4.000000,4.000000,4.000000,4.000000,4.000000,4.000000,4.000000,100.000000,,,,,,,,,,,,,,,,,,,,,,,,,,,,
1638094145.577819,43.000000,0.000000,4444.487305,4356.282227,4428.717773,4382.179688,4415.512695,4355.384766,4352.948730,4339.743652,4335.384766,4313.974121,4447.948730,4508.589844,4453.589844,4492.692383,0.000000,4.000000,100.000000,,,,0.000000,4.000000,4.000000,4.000000,4.000000,4.000000,4.000000,4.000000,4.000000,4.000000,4.000000,4.000000,4.000000,4.000000,4.000000,100.000000,,,,,,,,,,,,,,,,,,,,,,,,,,,,
1638094145.585727,44.000000,0.000000,4444.102539,4350.512695,4419.487305,4379.358887,4416.538574,4356.538574,4351.794922,4340.512695,4329.871582,4312.948730,4445.897461,4507.563965,4455.256348,4491.922852,0.000000,4.000000,100.000000,,,,0.000000,4.000000,4.000000,4.000000,4.000000,4.000000,4.000000,4.000000,4.000000,4.000000,4.000000,4.000000,4.000000,4.000000,4.000000,100.000000,,,,,,,,,,,,,,,,,11.000000,0.000000,0.147668,-0.717468,0.019470,-0.680481,0.961055,-0.225613,-0.035649,-36.176849,-15.168966,-11.341191
1638094145.593535,45.000000,0.000000,4445.512695,4352.563965,4416.922852,4380.897461,4415.641113,4352.307617,4349.615234,4337.051270,4326.538574,4312.436035,4444.487305,4505.512695,4458.589844,4489.743652,0.000000,4.000000,100.000000,,,,0.000000,4.000000,4.000000,4.000000,4.000000,4.000000,4.000000,4.000000,4.000000,4.000000,4.000000,4.000000,4.000000,4.000000,4.000000,100.000000,,,,,,,,,,,,,,,,,,,,,,,,,,,,
1638094145.601443,46.000000,0.000000,4446.153809,4357.692383,4418.077148,4381.794922,4413.205078,4348.846191,4344.615234,4328.077148,4326.538574,4311.538574,4444.102539,4499.743652,4455.000000,4491.410156,0.000000,4.000000,100.000000,,,,0.000000,4.000000,4.000000,4.000000,4.000000,4.000000,4.000000,4.000000,4.000000,4.000000,4.000000,4.000000,4.000000,4.000000,4.000000,100.000000,,,,,,,,,,,,,,,,,,,,,,,,,,,,
1638094145.609251,47.000000,0.000000,4442.820313,4351.025879,4431.025879,4375.128418,4411.410156,4351.153809,4338.461426,4324.358887,4322.051270,4308.461426,4442.948730,4493.717773,4451.410156,4491.282227,0.000000,4.000000,100.000000,,,,0.000000,4.000000,4.000000,4.000000,4.000000,4.000000,4.000000,4.000000,4.000000,4.000000,4.000000,4.000000,4.000000,4.000000,4.000000,100.000000,,,,,,,,,,,,,,,,,,,,,,,,,,,,
1638094145.617159,48.000000,0.000000,4442.948730,4349.102539,4454.358887,4370.641113,4415.000000,4353.333496,4340.897461,4331.282227,4324.871582,4312.948730,4440.512695,4495.128418,4457.051270,4489.358887,0.000000,4.000000,100.000000,,,,0.000000,4.000000,4.000000,4.000000,4.000000,4.000000,4.000000,4.000000,4.000000,4.000000,4.000000,4.000000,4.000000,4.000000,4.000000,100.000000,,,,,,,,,,,,,,,,,12.000000,0.000000,0.147677,-0.717590,0.019165,-0.680359,0.956171,-0.246612,-0.020999,-36.175831,-15.068736,-11.290405
1638094145.624968,49.000000,0.000000,4443.717773,4354.871582,4468.589844,4374.230957,4415.384766,4349.487305,4344.743652,4331.538574,4329.102539,4317.307617,4432.820313,4494.487305,4453.846191,4485.128418,0.000000,4.000000,100.000000,,,,0.000000,4.000000,4.000000,4.000000,4.000000,4.000000,4.000000,4.000000,4.000000,4.000000,4.000000,4.000000,4.000000,4.000000,4.000000,100.000000,,,,,,,,,,,,,,,,,,,,,,,,,,,,
1638094145.632876,50.000000,0.000000,4440.512695,4355.128418,4492.051270,4379.102539,4415.256348,4351.794922,4343.589844,4322.436035,4324.487305,4312.692383,4430.000000,4487.948730,4447.051270,4484.358887,0.000000,4.000000,100.000000,,,,0.000000,4.000000,4.000000,4.000000,4.000000,4.000000,4.000000,4.000000,4.000000,4.000000,4.000000,4.000000,4.000000,4.000000,4.000000,100.000000,,,,,,,,,,,,,,,,,,,,,,,,,,,,
1638094145.640684,51.000000,0.000000,4444.230957,4360.512695,4562.948730,4383.974121,4423.846191,4361.538574,4346.282227,4324.871582,4326.538574,4317.051270,4441.025879,4491.153809,4456.666504,4492.051270,0.000000,4.000000,100.000000,,,,0.000000,4.000000,4.000000,4.000000,4.000000,4.000000,4.000000,4.000000,4.000000,4.000000,4.000000,4.000000,4.000000,4.000000,4.000000,100.000000,,,,,,,,,,,,,,,,,,,,,,,,,,,,
1638094145.648592,52.000000,0.000000,4451.153809,4367.436035,4634.615234,4385.641113,4424.871582,4361.410156,4353.333496,4337.692383,4336.282227,4327.436035,4447.563965,4503.974121,4464.487305,4497.436035,0.000000,4.000000,100.000000,,,,0.000000,4.000000,4.000000,4.000000,4.000000,4.000000,4.000000,4.000000,4.000000,4.000000,4.000000,4.000000,4.000000,4.000000,4.000000,100.000000,,,,,,,,,,,,,,,,,13.000000,0.000000,0.147404,-0.717712,0.018860,-0.680298,0.961055,-0.229520,-0.037602,-36.091579,-15.011863,-11.328032
1638094145.656400,53.000000,0.000000,4448.846191,4361.794922,4632.820313,4383.846191,4414.615234,4351.538574,4353.205078,4342.692383,4338.077148,4325.000000,4444.358887,4504.102539,4457.436035,4491.794922,0.000000,4.000000,100.000000,,,,0.000000,4.000000,4.000000,4.000000,4.000000,4.000000,4.000000,4.000000,4.000000,4.000000,4.000000,4.000000,4.000000,4.000000,4.000000,100.000000,,,,,,,,,,,,,,,,,,,,,,,,,,,,
1638094145.664308,54.000000,0.000000,4443.077148,4356.922852,4583.077148,4380.769043,4412.307617,4348.717773,4344.358887,4337.563965,4332.051270,4317.436035,4443.077148,4493.974121,4448.205078,4485.384766,0.000000,4.000000,100.000000,,,,0.000000,4.000000,4.000000,4.000000,4.000000,4.000000,4.000000,4.000000,4.000000,4.000000,4.000000,4.000000,4.000000,4.000000,4.000000,100.000000,,,,,,,,,,,,,,,,,,,,,,,,,,,,
1638094145.672117,55.000000,0.000000,4442.948730,4356.410156,4541.794922,4375.000000,4413.717773,4351.666504,4340.000000,4331.153809,4327.563965,4315.641113,4438.077148,4486.538574,4443.717773,4485.000000,0.000000,4.000000,100.000000,,,,0.000000,4.000000,4.000000,4.000000,4.000000,4.000000,4.000000,4.000000,4.000000,4.000000,4.000000,4.000000,4.000000,4.000000,4.000000,100.000000,,,,,,,,,,,,,,,,,,,,,,,,,,,,
1638094145.679825,56.000000,0.000000,4444.487305,4354.743652,4519.743652,4375.769043,4411.922852,4349.615234,4342.307617,4327.436035,4325.256348,4312.436035,4429.102539,4482.820313,4442.820313,4481.410156,0.000000,4.000000,100.000000,,,,0.000000,4.000000,4.000000,4.000000,4.000000,4.000000,4.000000,4.000000,4.000000,4.000000,4.000000,4.000000,4.000000,4.000000,4.000000,100.000000,,,,,,,,,,,,,,,,,14.000000,0.000000,0.147137,-0.717896,0.018372,-0.680176,0.954218,-0.229520,-0.023440,-36.049088,-14.927342,-11.228561
1638094145.687633,57.000000,0.000000,4443.974121,4357.179688,4502.692383,4381.666504,4413.717773,4348.461426,4342.948730,4326.794922,4325.512695,4308.846191,4428.589844,4484.358887,4445.128418,4476.410156,0.000000,4.000000,100.000000,,,,0.000000,4.000000,4.000000,4.000000,4.000000,4.000000,4.000000,4.000000,4.000000,4.000000,4.000000,4.000000,4.000000,4.000000,4.000000,100.000000,,,,,,,,,,,,,,,,,,,,,,,,,,,,
1638094145.695341,58.000000,0.000000,4443.846191,4356.153809,4479.230957,4378.717773,4414.102539,4350.000000,4339.358887,4325.512695,4324.871582,4309.615234,4432.692383,4483.846191,4443.205078,4476.025879,0.000000,4.000000,100.000000,,,,0.000000,4.000000,4.000000,4.000000,4.000000,4.000000,4.000000,4.000000,4.000000,4.000000,4.000000,4.000000,4.000000,4.000000,4.000000,100.000000,,,,,,,,,,,,,,,,,,,,,,,,,,,,
1638094145.703150,59.000000,0.000000,4441.025879,4348.974121,4458.589844,4370.384766,4410.512695,4349.102539,4335.512695,4320.641113,4318.974121,4307.307617,4427.436035,4474.615234,4436.538574,4473.589844,0.000000,4.000000,100.000000,,,,0.000000,4.000000,4.000000,4.000000,4.000000,4.000000,4.000000,4.000000,4.000000,4.000000,4.000000,4.000000,4.000000,4.000000,4.000000,100.000000,,,,,,,,,,,,,,,,,,,,,,,,,,,,
1638094145.710858,60.000000,0.000000,4440.897461,4352.692383,4454.487305,4371.794922,4410.128418,4349.230957,4338.589844,4321.025879,4319.743652,4306.794922,4425.384766,4476.025879,4438.461426,4475.128418,0.000000,4.000000,100.000000,,,,0.000000,4.000000,4.000000,4.000000,4.000000,4.000000,4.000000,4.000000,4.000000,4.000000,4.000000,4.000000,4.000000,4.000000,4.000000,100.000000,,,,,,,,,,,,,,,,,15.000000,0.000000,0.146870,-0.717957,0.018127,-0.680176,0.962520,-0.228055,-0.032719,-36.094181,-14.934608,-11.305705
1638094145.718666,61.000000,0.000000,4450.641113,4364.102539,4454.615234,4380.128418,4416.538574,4352.692383,4347.051270,4327.692383,4324.230957,4308.717773,4437.692383,4491.410156,4445.128418,4488.077148,0.000000,4.000000,100.000000,,,,0.000000,4.000000,4.000000,4.000000,4.000000,4.000000,4.000000,4.000000,4.000000,4.000000,4.000000,4.000000,4.000000,4.000000,4.000000,100.000000,,,,,,,,,,,,,,,,,,,,,,,,,,,,
1638094145.726374,62.000000,0.000000,4460.641113,4368.205078,4444.487305,4386.025879,4425.641113,4355.769043,4351.282227,4331.282227,4325.000000,4311.153809,4446.666504,4499.615234,4448.461426,4493.333496,0.000000,4.000000,100.000000,,,,0.000000,4.000000,4.000000,4.000000,4.000000,4.000000,4.000000,4.000000,4.000000,4.000000,4.000000,4.000000,4.000000,4.000000,4.000000,100.000000,,,,,,,,,,,,,,,,,,,,,,,,,,,,
1638094145.734283,63.000000,0.000000,4461.666504,4367.051270,4439.358887,4388.846191,4426.282227,4356.410156,4350.897461,4336.538574,4332.051270,4317.820313,4446.794922,4500.256348,4455.384766,4489.102539,0.000000,4.000000,100.000000,,,,0.000000,4.000000,4.000000,4.000000,4.000000,4.000000,4.000000,4.000000,4.000000,4.000000,4.000000,4.000000,4.000000,4.000000,4.000000,100.000000,,,,,,,,,,,,,,,,,,,,,,,,,,,,
1638094145.742091,64.000000,0.000000,4457.563965,4366.666504,4437.179688,4390.641113,4423.461426,4356.794922,4351.410156,4342.307617,4338.846191,4321.025879,4450.512695,4501.794922,4460.512695,4495.512695,2563.000000,4.000000,100.000000,,,,0.000000,4.000000,4.000000,4.000000,4.000000,4.000000,4.000000,4.000000,4.000000,4.000000,4.000000,4.000000,4.000000,4.000000,4.000000,100.000000,,,,,,,,,,,,,,,,,16.000000,0.000000,0.146617,-0.717957,0.017883,-0.680237,0.963985,-0.209498,-0.037114,-36.134762,-14.974481,-11.341802
1638094145.749999,65.000000,0.000000,4449.230957,4361.538574,4420.000000,4384.615234,4418.846191,4351.538574,4346.410156,4333.205078,4328.461426,4312.820313,4448.205078,4493.846191,4448.846191,4492.051270,2491.000000,4.000000,100.000000,,,,0.000000,4.000000,4.000000,4.000000,4.000000,4.000000,4.000000,4.000000,4.000000,4.000000,4.000000,4.000000,4.000000,4.000000,4.000000,100.000000,,,,,,,,,,,,,,,,,,,,,,,,,,,,
1638094145.757807,66.000000,0.000000,4440.384766,4352.179688,4406.025879,4373.717773,4412.307617,4345.641113,4337.948730,4323.333496,4319.743652,4307.307617,4438.974121,4483.077148,4439.102539,4474.615234,2448.000000,4.000000,100.000000,,,,0.000000,4.000000,4.000000,4.000000,4.000000,4.000000,4.000000,4.000000,4.000000,4.000000,4.000000,4.000000,4.000000,4.000000,4.000000,100.000000,,,,,,,,,,,,,,,,,,,,,,,,,,,,
1638094145.765715,67.000000,0.000000,4449.102539,4355.512695,4418.205078,4379.871582,4416.794922,4351.025879,4342.692383,4331.922852,4332.179688,4317.051270,4450.000000,4490.512695,4451.922852,4480.512695,2454.000000,4.000000,100.000000,,,,0.000000,4.000000,4.000000,4.000000,4.000000,4.000000,4.000000,4.000000,4.000000,4.000000,4.000000,4.000000,4.000000,4.000000,4.000000,100.000000,,,,,,,,,,,,,,,,,,,,,,,,,,,,
1638094145.773523,68.000000,0.000000,4460.256348,4364.615234,4430.769043,4392.692383,4423.717773,4355.897461,4349.871582,4337.948730,4339.102539,4321.153809,4462.436035,4502.692383,4458.589844,4496.666504,2322.000000,4.000000,100.000000,,,,0.000000,4.000000,4.000000,4.000000,4.000000,4.000000,4.000000,4.000000,4.000000,4.000000,4.000000,4.000000,4.000000,4.000000,4.000000,100.000000,,,,,,,,,,,,,,,,,17.000000,0.000000,0.146072,-0.717957,0.017700,-0.680359,0.950311,-0.221707,-0.039067,-36.304619,-15.010366,-11.374289
1638094145.781332,69.000000,0.000000,4450.256348,4359.358887,4420.641113,4385.384766,4415.512695,4350.769043,4343.205078,4328.589844,4326.282227,4310.769043,4448.717773,4492.179688,4445.769043,4486.794922,2286.000000,4.000000,100.000000,,,,0.000000,4.000000,4.000000,4.000000,4.000000,4.000000,4.000000,4.000000,4.000000,4.000000,4.000000,4.000000,4.000000,4.000000,4.000000,100.000000,,,,,,,,,,,,,,,,,,,,,,,,,,,,
1638094145.789040,70.000000,0.000000,4440.128418,4353.333496,4407.948730,4376.153809,4408.717773,4348.461426,4337.820313,4322.948730,4319.615234,4306.153809,4436.922852,4478.589844,4438.461426,4472.436035,2292.000000,4.000000,100.000000,,,,0.000000,4.000000,4.000000,4.000000,4.000000,4.000000,4.000000,4.000000,4.000000,4.000000,4.000000,4.000000,4.000000,4.000000,4.000000,100.000000,,,,,,,,,,,,,,,,,,,,,,,,,,,,
1638094145.796948,71.000000,0.000000,4444.487305,4357.692383,4405.512695,4380.512695,4414.871582,4351.153809,4341.666504,4328.589844,4326.153809,4310.641113,4443.589844,4485.769043,4443.974121,4477.307617,2326.000000,4.000000,100.000000,,,,0.000000,4.000000,4.000000,4.000000,4.000000,4.000000,4.000000,4.000000,4.000000,4.000000,4.000000,4.000000,4.000000,4.000000,4.000000,100.000000,,,,,,,,,,,,,,,,,,,,,,,,,,,,
1638094145.804756,72.000000,0.000000,4448.717773,4359.230957,4404.615234,4381.410156,4415.897461,4350.641113,4342.051270,4331.794922,4330.000000,4313.205078,4451.666504,4494.871582,4445.769043,4486.794922,2399.000000,4.000000,100.000000,,,,0.000000,4.000000,4.000000,4.000000,4.000000,4.000000,4.000000,4.000000,4.000000,4.000000,4.000000,4.000000,4.000000,4.000000,4.000000,100.000000,,,,,,,,,,,,,,,,,18.000000,0.000000,0.146102,-0.717896,0.017578,-0.680420,0.951776,-0.222683,-0.043951,-36.207489,-14.809330,-11.403526
1638094145.812664,73.000000,0.000000,4447.051270,4357.307617,4406.410156,4379.743652,4412.179688,4349.358887,4342.051270,4328.974121,4326.794922,4311.794922,4455.512695,4490.256348,4445.128418,4487.692383,2371.000000,4.000000,100.000000,,,,0.000000,4.000000,4.000000,4.000000,4.000000,4.000000,4.000000,4.000000,4.000000,4.000000,4.000000,4.000000,4.000000,4.000000,4.000000,100.000000,,,,,,,,,,,,,,,,,,,,,,,,,,,,
1638094145.820473,74.000000,0.000000,4445.769043,4357.436035,4408.077148,4382.307617,4413.205078,4350.384766,4343.974121,4326.410156,4318.974121,4306.666504,4458.205078,4482.948730,4445.128418,4482.692383,2666.000000,4.000000,100.000000,,,,0.000000,4.000000,4.000000,4.000000,4.000000,4.000000,4.000000,4.000000,4.000000,4.000000,4.000000,4.000000,4.000000,4.000000,4.000000,100.000000,,,,,,,,,,,,,,,,,,,,,,,,,,,,
1638094145.828381,75.000000,0.000000,4447.436035,4357.563965,4402.051270,4379.743652,4412.948730,4349.358887,4339.743652,4323.077148,4310.512695,4303.589844,4454.358887,4479.615234,4442.179688,4481.025879,2844.000000,4.000000,100.000000,,,,0.000000,4.000000,4.000000,4.000000,4.000000,4.000000,4.000000,4.000000,4.000000,4.000000,4.000000,4.000000,4.000000,4.000000,4.000000,100.000000,,,,,,,,,,,,,,,,,,,,,,,,,,,,
1638094145.836189,76.000000,0.000000,4456.025879,4366.666504,4403.077148,4384.487305,4413.077148,4349.871582,4337.948730,4323.333496,4319.102539,4315.512695,4461.282227,4486.922852,4452.051270,4490.256348,3152.000000,4.000000,100.000000,,,,0.000000,4.000000,4.000000,4.000000,4.000000,4.000000,4.000000,4.000000,4.000000,4.000000,4.000000,4.000000,4.000000,4.000000,4.000000,100.000000,,,,,,,,,,,,,,,,,19.000000,0.000000,0.145555,-0.717834,0.017517,-0.680603,0.959101,-0.221707,-0.022464,-36.236740,-14.778397,-11.379840
1638094145.844097,77.000000,0.000000,4463.974121,4374.230957,4409.358887,4394.871582,4415.384766,4353.205078,4344.358887,4328.205078,4330.641113,4324.358887,4474.487305,4498.205078,4460.384766,4497.692383,3503.000000,4.000000,100.000000,,,,0.000000,4.000000,4.000000,4.000000,4.000000,4.000000,4.000000,4.000000,4.000000,4.000000,4.000000,4.000000,4.000000,4.000000,4.000000,100.000000,,,,,,,,,,,,,,,,,,,,,,,,,,,,
1638094145.851905,78.000000,0.000000,4458.461426,4365.512695,4396.025879,4390.128418,4411.538574,4349.487305,4342.692383,4324.871582,4318.205078,4313.717773,4467.563965,4490.769043,4445.897461,4490.256348,2666.000000,4.000000,100.000000,,,,0.000000,4.000000,4.000000,4.000000,4.000000,4.000000,4.000000,4.000000,4.000000,4.000000,4.000000,4.000000,4.000000,4.000000,4.000000,100.000000,,,,,,,,,,,,,,,,,,,,,,,,,,,,
1638094145.859813,79.000000,0.000000,4448.461426,4356.282227,4375.897461,4378.589844,4402.820313,4340.512695,4330.512695,4314.102539,4308.205078,4306.538574,4454.871582,4475.641113,4430.512695,4479.358887,2844.000000,4.000000,100.000000,,,,0.000000,4.000000,4.000000,4.000000,4.000000,4.000000,4.000000,4.000000,4.000000,4.000000,4.000000,4.000000,4.000000,4.000000,4.000000,100.000000,,,,,,,,,,,,,,,,,,,,,,,,,,,,
