title:Meital1, start timestamp:1638094657.533968, stop timestamp:1638094730.266930, headset type:EPOCX, headset serial:E20205C4, headset firmware:710, channels:67, sampling rate:eeg_128;mot_32, samples:9316      , version:2.1, 
Timestamp,EEG.Counter,EEG.Interpolated,EEG.AF3,EEG.F7,EEG.F3,EEG.FC5,EEG.T7,EEG.P7,EEG.O1,EEG.O2,EEG.P8,EEG.T8,EEG.FC6,EEG.F4,EEG.F8,EEG.AF4,EEG.RawCq,EEG.Battery,EEG.BatteryPercent,MarkerIndex,MarkerType,MarkerValueInt,EEG.MarkerHardware,CQ.AF3,CQ.F7,CQ.F3,CQ.FC5,CQ.T7,CQ.P7,CQ.O1,CQ.O2,CQ.P8,CQ.T8,CQ.FC6,CQ.F4,CQ.F8,CQ.AF4,CQ.Overall,EQ.SampleRateQuality,EQ.OVERALL,EQ.AF3,EQ.F7,EQ.F3,EQ.FC5,EQ.T7,EQ.P7,EQ.O1,EQ.O2,EQ.P8,EQ.T8,EQ.FC6,EQ.F4,EQ.F8,EQ.AF4,MOT.CounterMems,MOT.InterpolatedMems,MOT.Q0,MOT.Q1,MOT.Q2,MOT.Q3,MOT.AccX,MOT.AccY,MOT.AccZ,MOT.MagX,MOT.MagY,MOT.MagZ
1638094657.533968,74.000000,0.000000,4035.641113,4202.307617,4312.820313,4258.333496,4287.563965,4218.333496,4200.128418,4474.487305,4397.563965,4242.820313,4695.128418,4546.794922,4478.974121,4598.333496,2551.000000,4.000000,98.000000,,,,0.000000,4.000000,4.000000,4.000000,4.000000,4.000000,2.000000,4.000000,0.000000,2.000000,4.000000,4.000000,4.000000,4.000000,4.000000,33.333332,,,,,,,,,,,,,,,,,,,,,,,,,,,,
1638094657.541676,75.000000,0.000000,4050.384521,4221.025879,4336.666504,4270.769043,4296.666504,4219.743652,4198.333496,4474.358887,4415.000000,4242.820313,4715.641113,4566.922852,4492.948730,4618.333496,2656.000000,4.000000,98.000000,,,,0.000000,4.000000,4.000000,4.000000,4.000000,4.000000,2.000000,4.000000,0.000000,2.000000,4.000000,4.000000,4.000000,4.000000,4.000000,33.333332,,,,,,,,,,,,,,,,,,,,,,,,,,,,
1638094657.549484,76.000000,0.000000,4046.281982,4221.410156,4336.538574,4275.256348,4302.436035,4217.179688,4199.358887,4473.333496,4412.179688,4234.358887,4712.563965,4569.230957,4486.025879,4621.410156,2069.000000,4.000000,98.000000,,,,0.000000,4.000000,4.000000,4.000000,4.000000,4.000000,2.000000,4.000000,0.000000,2.000000,4.000000,4.000000,4.000000,4.000000,4.000000,33.333332,,,,,,,,,,,,,,,,,19.000000,0.000000,0.250937,0.640747,-0.284363,0.667542,0.988890,-0.068368,0.007813,-44.852173,-3.128861,-24.586363
1638094657.557192,77.000000,0.000000,4044.615479,4212.179688,4321.794922,4258.974121,4295.897461,4219.487305,4198.077148,4471.153809,4404.615234,4230.769043,4699.615234,4554.871582,4483.717773,4615.641113,2513.000000,4.000000,98.000000,,,,0.000000,4.000000,4.000000,4.000000,4.000000,4.000000,2.000000,4.000000,0.000000,2.000000,4.000000,4.000000,4.000000,4.000000,4.000000,33.333332,,,,,,,,,,,,,,,,,,,,,,,,,,,,
1638094657.565001,78.000000,0.000000,4057.692383,4220.641113,4325.512695,4261.025879,4286.410156,4222.692383,4198.205078,4471.666504,4412.820313,4236.922852,4698.077148,4557.051270,4495.384766,4616.666504,2551.000000,4.000000,98.000000,,,,0.000000,4.000000,4.000000,4.000000,4.000000,4.000000,2.000000,4.000000,0.000000,2.000000,4.000000,4.000000,4.000000,4.000000,4.000000,33.333332,,,,,,,,,,,,,,,,,,,,,,,,,,,,
1638094657.572709,79.000000,0.000000,4051.025635,4218.974121,4326.922852,4279.615234,4280.256348,4215.897461,4198.077148,4476.153809,4411.794922,4228.461426,4685.512695,4567.179688,4481.794922,4604.743652,2656.000000,4.000000,98.000000,,,,0.000000,4.000000,4.000000,4.000000,4.000000,4.000000,2.000000,4.000000,0.000000,2.000000,4.000000,4.000000,4.000000,4.000000,4.000000,33.333332,,,,,,,,,,,,,,,,,,,,,,,,,,,,
1638094657.580517,80.000000,0.000000,4038.846191,4200.384766,4322.051270,4273.077148,4278.717773,4209.487305,4196.666504,4477.948730,4406.410156,4215.641113,4679.487305,4568.717773,4452.563965,4593.717773,2069.000000,4.000000,98.000000,,,,0.000000,4.000000,4.000000,4.000000,4.000000,4.000000,2.000000,4.000000,0.000000,2.000000,4.000000,4.000000,4.000000,4.000000,4.000000,33.333332,,,,,,,,,,,,,,,,,20.000000,0.000000,0.250666,0.640808,-0.284607,0.667480,0.976682,-0.078135,0.022464,-44.683624,-3.232642,-24.627726
1638094657.588225,81.000000,0.000000,4045.897461,4194.743652,4324.102539,4257.563965,4279.102539,4213.333496,4197.820313,4475.000000,4414.487305,4212.307617,4697.563965,4561.922852,4453.974121,4598.589844,2513.000000,4.000000,98.000000,,,,0.000000,4.000000,4.000000,4.000000,4.000000,4.000000,2.000000,4.000000,0.000000,2.000000,4.000000,4.000000,4.000000,4.000000,4.000000,33.333332,,,,,,,,,,,,,,,,,,,,,,,,,,,,
1638094657.596134,82.000000,0.000000,4052.564209,4206.538574,4328.589844,4272.307617,4282.436035,4217.563965,4200.512695,4472.563965,4413.589844,4212.948730,4699.743652,4555.512695,4470.512695,4601.153809,2551.000000,4.000000,98.000000,,,,0.000000,4.000000,4.000000,4.000000,4.000000,4.000000,2.000000,4.000000,0.000000,2.000000,4.000000,4.000000,4.000000,4.000000,4.000000,33.333332,,,,,,,,,,,,,,,,,,,,,,,,,,,,
1638094657.603942,83.000000,0.000000,4056.281982,4218.846191,4338.589844,4289.743652,4297.563965,4218.717773,4202.563965,4472.948730,4406.410156,4222.436035,4691.153809,4565.641113,4476.538574,4604.358887,2656.000000,4.000000,98.000000,,,,0.000000,4.000000,4.000000,4.000000,4.000000,4.000000,2.000000,4.000000,0.000000,2.000000,4.000000,4.000000,4.000000,4.000000,4.000000,33.333332,,,,,,,,,,,,,,,,,,,,,,,,,,,,
1638094657.611850,84.000000,0.000000,4054.615479,4219.230957,4338.974121,4276.282227,4298.974121,4214.102539,4190.512695,4472.820313,4408.974121,4224.743652,4696.153809,4572.307617,4470.897461,4604.615234,2069.000000,4.000000,98.000000,,,,0.000000,4.000000,4.000000,4.000000,4.000000,4.000000,2.000000,4.000000,0.000000,2.000000,4.000000,4.000000,4.000000,4.000000,4.000000,33.333332,,,,,,,,,,,,,,,,,21.000000,0.000000,0.250939,0.640747,-0.284790,0.667358,0.974240,-0.050299,0.008302,-44.665260,-3.126044,-24.598288
1638094657.619658,85.000000,0.000000,4049.615479,4217.820313,4324.743652,4265.128418,4283.717773,4213.846191,4180.512695,4470.000000,4415.769043,4224.743652,4692.436035,4559.743652,4469.230957,4597.692383,2513.000000,4.000000,98.000000,,,,0.000000,4.000000,4.000000,4.000000,4.000000,4.000000,2.000000,4.000000,0.000000,2.000000,4.000000,4.000000,4.000000,4.000000,4.000000,33.333332,,,,,,,,,,,,,,,,,,,,,,,,,,,,
1638094657.627566,86.000000,0.000000,4049.743652,4214.230957,4322.051270,4263.974121,4283.974121,4224.615234,4190.256348,4469.102539,4419.871582,4234.487305,4681.282227,4553.717773,4482.307617,4599.358887,2551.000000,4.000000,98.000000,,,,0.000000,4.000000,4.000000,4.000000,4.000000,4.000000,2.000000,4.000000,0.000000,2.000000,4.000000,4.000000,4.000000,4.000000,4.000000,33.333332,,,,,,,,,,,,,,,,,,,,,,,,,,,,
1638094657.635374,87.000000,0.000000,4047.435791,4208.717773,4330.769043,4265.512695,4296.410156,4227.692383,4195.897461,4469.743652,4423.461426,4232.307617,4683.717773,4561.282227,4488.846191,4606.922852,2656.000000,4.000000,98.000000,,,,0.000000,4.000000,4.000000,4.000000,4.000000,4.000000,2.000000,4.000000,0.000000,2.000000,4.000000,4.000000,4.000000,4.000000,4.000000,33.333332,,,,,,,,,,,,,,,,,,,,,,,,,,,,
1638094657.643282,88.000000,0.000000,4043.076904,4214.487305,4328.461426,4274.102539,4294.743652,4216.922852,4192.436035,4470.384766,4430.512695,4222.692383,4692.179688,4563.461426,4479.230957,4604.358887,2069.000000,4.000000,98.000000,,,,0.000000,4.000000,4.000000,4.000000,4.000000,4.000000,2.000000,4.000000,0.000000,2.000000,4.000000,4.000000,4.000000,4.000000,4.000000,33.333332,,,,,,,,,,,,,,,,,22.000000,0.000000,0.251179,0.641052,-0.284607,0.667053,0.984495,-0.035649,0.002442,-44.732067,-3.063440,-24.638458
1638094657.651091,89.000000,0.000000,4042.564209,4218.717773,4321.794922,4270.769043,4285.769043,4212.692383,4195.384766,4472.820313,4433.333496,4224.615234,4693.974121,4558.974121,4473.333496,4598.589844,2513.000000,4.000000,98.000000,,,,0.000000,4.000000,4.000000,4.000000,4.000000,4.000000,2.000000,4.000000,0.000000,2.000000,4.000000,4.000000,4.000000,4.000000,4.000000,33.333332,,,,,,,,,,,,,,,,,,,,,,,,,,,,
1638094657.658999,90.000000,0.000000,4044.743652,4213.461426,4329.487305,4263.077148,4295.641113,4216.794922,4209.487305,4475.256348,4438.461426,4232.820313,4688.077148,4561.794922,4478.461426,4632.820313,2551.000000,4.000000,98.000000,,,,0.000000,4.000000,4.000000,4.000000,4.000000,4.000000,2.000000,4.000000,0.000000,2.000000,4.000000,4.000000,4.000000,4.000000,4.000000,33.333332,,,,,,,,,,,,,,,,,,,,,,,,,,,,
1638094657.666807,91.000000,0.000000,4043.205078,4213.589844,4335.000000,4267.563965,4303.974121,4217.436035,4219.871582,4474.871582,4451.666504,4237.436035,4682.563965,4565.512695,4477.179688,4698.717773,2656.000000,4.000000,98.000000,,,,0.000000,4.000000,4.000000,4.000000,4.000000,4.000000,2.000000,4.000000,0.000000,2.000000,4.000000,4.000000,4.000000,4.000000,4.000000,33.333332,,,,,,,,,,,,,,,,,,,,,,,,,,,,
1638094657.674715,92.000000,0.000000,4043.974365,4212.692383,4333.589844,4273.589844,4294.615234,4217.692383,4217.307617,4473.717773,4457.179688,4243.333496,4687.307617,4569.102539,4469.487305,4742.692383,2069.000000,4.000000,98.000000,,,,0.000000,4.000000,4.000000,4.000000,4.000000,4.000000,2.000000,4.000000,0.000000,2.000000,4.000000,4.000000,4.000000,4.000000,4.000000,33.333332,,,,,,,,,,,,,,,,,23.000000,0.000000,0.251127,0.641479,-0.284119,0.666870,0.990844,-0.057136,0.013674,-44.808861,-3.073763,-24.541279
1638094657.682523,93.000000,0.000000,4052.692383,4209.871582,4344.487305,4279.615234,4296.025879,4219.487305,4214.743652,4476.666504,4453.461426,4251.025879,4698.205078,4583.333496,4479.358887,4769.615234,2513.000000,4.000000,98.000000,,,,0.000000,4.000000,4.000000,4.000000,4.000000,4.000000,2.000000,4.000000,0.000000,2.000000,4.000000,4.000000,4.000000,4.000000,4.000000,33.333332,,,,,,,,,,,,,,,,,,,,,,,,,,,,
1638094657.690431,94.000000,0.000000,4051.923096,4212.051270,4347.307617,4281.794922,4298.717773,4216.666504,4209.743652,4477.563965,4456.666504,4250.641113,4699.102539,4582.692383,4491.666504,4792.436035,2551.000000,4.000000,98.000000,,,,0.000000,4.000000,4.000000,4.000000,4.000000,4.000000,2.000000,4.000000,0.000000,2.000000,4.000000,4.000000,4.000000,4.000000,4.000000,33.333332,,,,,,,,,,,,,,,,,,,,,,,,,,,,
1638094657.698240,95.000000,0.000000,4040.000000,4212.948730,4329.487305,4266.025879,4285.641113,4215.512695,4194.358887,4474.230957,4464.102539,4245.000000,4697.179688,4559.871582,4482.692383,4784.230957,2656.000000,4.000000,98.000000,,,,0.000000,4.000000,4.000000,4.000000,4.000000,4.000000,2.000000,4.000000,0.000000,2.000000,4.000000,4.000000,4.000000,4.000000,4.000000,33.333332,,,,,,,,,,,,,,,,,,,,,,,,,,,,
1638094657.705948,96.000000,0.000000,4039.102539,4212.692383,4327.307617,4262.948730,4294.487305,4218.205078,4182.820313,4475.384766,4464.615234,4236.025879,4695.897461,4557.563965,4470.256348,4758.077148,2069.000000,4.000000,98.000000,,,,0.000000,4.000000,4.000000,4.000000,4.000000,4.000000,2.000000,4.000000,0.000000,2.000000,4.000000,4.000000,4.000000,4.000000,4.000000,33.333332,1.000000,8.333333,0.000000,4.000000,3.000000,4.000000,4.000000,2.000000,4.000000,0.000000,1.000000,4.000000,1.000000,4.000000,4.000000,3.000000,24.000000,0.000000,0.251004,0.641418,-0.283936,0.667053,0.995727,-0.058601,0.019534,-44.894642,-2.983053,-24.587151
1638094657.713756,97.000000,0.000000,4047.307617,4219.871582,4340.000000,4283.846191,4322.307617,4212.436035,4175.897461,4475.256348,4469.358887,4225.128418,4685.769043,4577.563965,4475.512695,4750.000000,2513.000000,4.000000,98.000000,,,,0.000000,4.000000,4.000000,4.000000,4.000000,4.000000,2.000000,4.000000,0.000000,2.000000,4.000000,4.000000,4.000000,4.000000,4.000000,33.333332,,,,,,,,,,,,,,,,,,,,,,,,,,,,
1638094657.721464,98.000000,0.000000,4041.153809,4223.974121,4332.820313,4282.436035,4314.487305,4206.153809,4165.128418,4470.000000,4484.102539,4219.358887,4686.666504,4576.794922,4482.820313,4734.487305,2551.000000,4.000000,98.000000,,,,0.000000,4.000000,4.000000,4.000000,4.000000,4.000000,2.000000,4.000000,0.000000,2.000000,4.000000,4.000000,4.000000,4.000000,4.000000,33.333332,,,,,,,,,,,,,,,,,,,,,,,,,,,,
1638094657.729373,99.000000,0.000000,4023.846191,4222.436035,4321.282227,4263.717773,4292.051270,4212.179688,4170.512695,4470.256348,4494.871582,4227.051270,4706.025879,4560.769043,4474.871582,4707.051270,2656.000000,4.000000,98.000000,,,,0.000000,4.000000,4.000000,4.000000,4.000000,4.000000,2.000000,4.000000,0.000000,2.000000,4.000000,4.000000,4.000000,4.000000,4.000000,33.333332,,,,,,,,,,,,,,,,,,,,,,,,,,,,
1638094657.737181,100.000000,0.000000,4004.487061,4218.589844,4323.589844,4272.307617,4300.256348,4220.384766,4191.025879,4473.974121,4501.153809,4229.871582,4716.922852,4562.948730,4464.230957,4718.974121,2069.000000,4.000000,98.000000,,,,0.000000,4.000000,4.000000,4.000000,4.000000,4.000000,2.000000,4.000000,0.000000,2.000000,4.000000,4.000000,4.000000,4.000000,4.000000,33.333332,,,,,,,,,,,,,,,,,25.000000,0.000000,0.250964,0.641235,-0.284241,0.667114,0.978147,-0.054694,0.019045,-44.905178,-2.918081,-24.578436
1638094657.744989,101.000000,0.000000,3978.205078,4206.666504,4321.025879,4286.794922,4316.538574,4220.641113,4197.051270,4472.307617,4503.205078,4210.128418,4711.410156,4566.794922,4455.769043,4739.358887,2513.000000,4.000000,98.000000,,,,0.000000,4.000000,4.000000,4.000000,4.000000,4.000000,2.000000,4.000000,0.000000,2.000000,4.000000,4.000000,4.000000,4.000000,4.000000,33.333332,,,,,,,,,,,,,,,,,,,,,,,,,,,,
1638094657.752697,102.000000,0.000000,3955.897461,4197.692383,4315.384766,4278.974121,4323.461426,4218.589844,4198.205078,4473.717773,4498.461426,4205.384766,4706.410156,4558.205078,4455.000000,4749.358887,2551.000000,4.000000,98.000000,,,,0.000000,4.000000,4.000000,4.000000,4.000000,4.000000,2.000000,4.000000,0.000000,2.000000,4.000000,4.000000,4.000000,4.000000,4.000000,33.333332,,,,,,,,,,,,,,,,,,,,,,,,,,,,
1638094657.760605,103.000000,0.000000,3944.230713,4198.461426,4316.538574,4266.666504,4319.487305,4216.025879,4206.922852,4474.487305,4495.512695,4220.769043,4700.897461,4553.717773,4464.358887,4801.666504,2656.000000,4.000000,98.000000,,,,0.000000,4.000000,4.000000,4.000000,4.000000,4.000000,2.000000,4.000000,0.000000,2.000000,4.000000,4.000000,4.000000,4.000000,4.000000,33.333332,,,,,,,,,,,,,,,,,,,,,,,,,,,,
1638094657.768414,104.000000,0.000000,3932.435791,4203.077148,4315.897461,4259.102539,4295.128418,4213.333496,4205.512695,4468.205078,4502.692383,4221.153809,4686.153809,4548.461426,4457.179688,4856.666504,2069.000000,4.000000,98.000000,,,,0.000000,4.000000,4.000000,4.000000,4.000000,4.000000,2.000000,4.000000,0.000000,2.000000,4.000000,4.000000,4.000000,4.000000,4.000000,33.333332,,,,,,,,,,,,,,,,,26.000000,0.000000,0.250895,0.641235,-0.284302,0.667114,0.976193,-0.060066,0.014162,-44.831326,-2.942940,-24.570593
1638094657.776322,105.000000,0.000000,3912.692383,4195.897461,4304.102539,4252.051270,4279.358887,4214.871582,4191.538574,4466.666504,4504.487305,4206.153809,4671.025879,4532.051270,4432.436035,4830.000000,2513.000000,4.000000,98.000000,,,,0.000000,4.000000,4.000000,4.000000,4.000000,4.000000,2.000000,4.000000,0.000000,2.000000,4.000000,4.000000,4.000000,4.000000,4.000000,33.333332,,,,,,,,,,,,,,,,,,,,,,,,,,,,
1638094657.784130,106.000000,0.000000,3893.974365,4185.000000,4289.871582,4255.897461,4288.333496,4215.512695,4178.717773,4472.563965,4500.128418,4194.871582,4675.256348,4523.974121,4426.922852,4774.102539,2551.000000,4.000000,98.000000,,,,0.000000,4.000000,4.000000,4.000000,4.000000,4.000000,2.000000,4.000000,0.000000,2.000000,4.000000,4.000000,4.000000,4.000000,4.000000,33.333332,,,,,,,,,,,,,,,,,,,,,,,,,,,,
1638094657.792038,107.000000,0.000000,3896.794922,4193.846191,4298.717773,4261.025879,4296.025879,4214.871582,4177.820313,4473.461426,4516.794922,4202.051270,4696.410156,4545.641113,4454.871582,4781.666504,2656.000000,4.000000,98.000000,,,,0.000000,4.000000,4.000000,4.000000,4.000000,4.000000,2.000000,4.000000,0.000000,2.000000,4.000000,4.000000,4.000000,4.000000,4.000000,33.333332,,,,,,,,,,,,,,,,,,,,,,,,,,,,
1638094657.799846,108.000000,0.000000,3907.820557,4205.897461,4322.436035,4257.948730,4298.846191,4214.743652,4186.538574,4469.358887,4534.487305,4218.717773,4703.333496,4570.384766,4482.436035,4806.153809,2069.000000,4.000000,98.000000,,,,0.000000,4.000000,4.000000,4.000000,4.000000,4.000000,2.000000,4.000000,0.000000,2.000000,4.000000,4.000000,4.000000,4.000000,4.000000,33.333332,,,,,,,,,,,,,,,,,27.000000,0.000000,0.251051,0.641174,-0.284302,0.667114,0.978147,-0.060066,0.008302,-44.814861,-3.048645,-24.446867
1638094657.807754,109.000000,0.000000,3893.974365,4205.000000,4324.358887,4260.256348,4296.282227,4213.077148,4186.025879,4471.282227,4522.179688,4224.358887,4693.974121,4568.589844,4479.230957,4782.436035,2513.000000,4.000000,98.000000,,,,0.000000,4.000000,4.000000,4.000000,4.000000,4.000000,2.000000,4.000000,0.000000,2.000000,4.000000,4.000000,4.000000,4.000000,4.000000,33.333332,,,,,,,,,,,,,,,,,,,,,,,,,,,,
1638094657.815563,110.000000,0.000000,3859.358887,4198.589844,4304.487305,4259.743652,4283.974121,4213.205078,4177.948730,4474.871582,4503.205078,4211.922852,4691.666504,4553.589844,4459.102539,4737.563965,2551.000000,4.000000,98.000000,,,,0.000000,4.000000,4.000000,4.000000,4.000000,4.000000,2.000000,4.000000,0.000000,2.000000,4.000000,4.000000,4.000000,4.000000,4.000000,33.333332,,,,,,,,,,,,,,,,,,,,,,,,,,,,
1638094657.823471,111.000000,0.000000,3860.256348,4198.589844,4308.846191,4251.666504,4288.077148,4220.128418,4194.615234,4474.615234,4507.179688,4209.358887,4695.769043,4558.589844,4458.077148,4723.205078,2656.000000,4.000000,98.000000,,,,0.000000,4.000000,4.000000,4.000000,4.000000,4.000000,2.000000,4.000000,0.000000,2.000000,4.000000,4.000000,4.000000,4.000000,4.000000,33.333332,,,,,,,,,,,,,,,,,,,,,,,,,,,,
1638094657.831279,112.000000,0.000000,3906.538574,4201.794922,4346.410156,4268.333496,4314.230957,4223.333496,4225.512695,4474.615234,4519.743652,4224.230957,4692.692383,4585.769043,4470.769043,4732.820313,2069.000000,4.000000,98.000000,,,,0.000000,4.000000,4.000000,4.000000,4.000000,4.000000,2.000000,4.000000,0.000000,2.000000,4.000000,4.000000,4.000000,4.000000,4.000000,33.333332,,,,,,,,,,,,,,,,,28.000000,0.000000,0.251081,0.641235,-0.284424,0.666992,0.981565,-0.063484,0.015627,-44.816708,-3.110448,-24.385513
1638094657.839187,113.000000,0.000000,3953.076904,4215.000000,4369.615234,4291.794922,4325.384766,4220.512695,4227.179688,4475.000000,4513.717773,4227.051270,4689.615234,4601.922852,4469.743652,4731.794922,2513.000000,4.000000,98.000000,,,,0.000000,4.000000,4.000000,4.000000,4.000000,4.000000,2.000000,4.000000,0.000000,2.000000,4.000000,4.000000,4.000000,4.000000,4.000000,33.333332,,,,,,,,,,,,,,,,,,,,,,,,,,,,
1638094657.846995,114.000000,0.000000,3980.512939,4222.820313,4366.410156,4279.230957,4315.769043,4222.436035,4212.692383,4477.436035,4500.897461,4212.692383,4692.307617,4598.077148,4460.000000,4723.589844,2551.000000,4.000000,98.000000,,,,0.000000,4.000000,4.000000,4.000000,4.000000,4.000000,2.000000,4.000000,0.000000,2.000000,4.000000,4.000000,4.000000,4.000000,4.000000,33.333332,,,,,,,,,,,,,,,,,,,,,,,,,,,,
1638094657.854703,115.000000,0.000000,3979.102539,4201.794922,4367.563965,4266.025879,4309.102539,4222.051270,4217.436035,4479.615234,4499.743652,4208.077148,4688.589844,4595.384766,4450.641113,4717.179688,2656.000000,4.000000,98.000000,,,,0.000000,4.000000,4.000000,4.000000,4.000000,4.000000,2.000000,4.000000,0.000000,2.000000,4.000000,4.000000,4.000000,4.000000,4.000000,33.333332,,,,,,,,,,,,,,,,,,,,,,,,,,,,
1638094657.862512,116.000000,0.000000,3964.230713,4194.743652,4373.974121,4282.179688,4314.743652,4214.871582,4221.922852,4476.794922,4494.871582,4225.512695,4685.000000,4602.692383,4456.282227,4721.153809,2069.000000,4.000000,98.000000,,,,0.000000,4.000000,4.000000,4.000000,4.000000,4.000000,2.000000,4.000000,0.000000,2.000000,4.000000,4.000000,4.000000,4.000000,4.000000,33.333332,,,,,,,,,,,,,,,,,29.000000,0.000000,0.250913,0.641174,-0.284424,0.667114,0.998169,-0.053229,0.021975,-44.801704,-3.116070,-24.513628
1638094657.870220,117.000000,0.000000,3955.897461,4226.922852,4361.922852,4291.538574,4313.974121,4214.871582,4206.410156,4477.820313,4478.077148,4228.589844,4689.871582,4600.128418,4472.563965,4726.666504,2513.000000,4.000000,98.000000,,,,0.000000,4.000000,4.000000,4.000000,4.000000,4.000000,2.000000,4.000000,0.000000,2.000000,4.000000,4.000000,4.000000,4.000000,4.000000,33.333332,,,,,,,,,,,,,,,,,,,,,,,,,,,,
1638094657.878028,118.000000,0.000000,3942.051270,4249.358887,4341.666504,4285.512695,4299.230957,4218.333496,4192.692383,4482.820313,4466.538574,4205.384766,4687.563965,4581.282227,4462.563965,4711.153809,2551.000000,4.000000,98.000000,,,,0.000000,4.000000,4.000000,4.000000,4.000000,4.000000,2.000000,4.000000,0.000000,2.000000,4.000000,4.000000,4.000000,4.000000,4.000000,33.333332,,,,,,,,,,,,,,,,,,,,,,,,,,,,
1638094657.885737,119.000000,0.000000,3925.512939,4244.871582,4342.179688,4289.230957,4302.179688,4213.333496,4198.846191,4481.538574,4461.282227,4199.487305,4679.230957,4575.128418,4444.871582,4698.333496,2656.000000,4.000000,98.000000,,,,0.000000,4.000000,4.000000,4.000000,4.000000,4.000000,2.000000,4.000000,0.000000,2.000000,4.000000,4.000000,4.000000,4.000000,4.000000,33.333332,,,,,,,,,,,,,,,,,,,,,,,,,,,,
1638094657.893545,120.000000,0.000000,3927.051270,4253.974121,4353.846191,4297.563965,4323.077148,4212.563965,4215.128418,4480.128418,4449.230957,4218.333496,4685.512695,4586.410156,4464.358887,4709.102539,2069.000000,4.000000,98.000000,,,,0.000000,4.000000,4.000000,4.000000,4.000000,4.000000,2.000000,4.000000,0.000000,2.000000,4.000000,4.000000,4.000000,4.000000,4.000000,33.333332,,,,,,,,,,,,,,,,,30.000000,0.000000,0.250946,0.641296,-0.284119,0.667114,0.980100,-0.062996,0.010743,-44.804867,-2.937796,-24.495600
1638094657.901253,121.000000,0.000000,3918.846191,4260.897461,4348.717773,4296.153809,4321.025879,4218.717773,4217.436035,4481.538574,4434.487305,4226.282227,4696.282227,4584.615234,4480.000000,4722.307617,2513.000000,4.000000,98.000000,,,,0.000000,4.000000,4.000000,4.000000,4.000000,4.000000,2.000000,4.000000,0.000000,2.000000,4.000000,4.000000,4.000000,4.000000,4.000000,33.333332,,,,,,,,,,,,,,,,,,,,,,,,,,,,
1638094657.909161,122.000000,0.000000,3894.487061,4242.692383,4342.051270,4284.102539,4308.077148,4220.128418,4211.794922,4479.615234,4423.974121,4222.948730,4697.563965,4575.641113,4462.692383,4739.487305,2551.000000,4.000000,98.000000,,,,0.000000,4.000000,4.000000,4.000000,4.000000,4.000000,2.000000,4.000000,0.000000,2.000000,4.000000,4.000000,4.000000,4.000000,4.000000,33.333332,,,,,,,,,,,,,,,,,,,,,,,,,,,,
1638094657.916969,123.000000,0.000000,3894.358887,4232.948730,4353.846191,4279.230957,4312.307617,4219.871582,4215.384766,4478.974121,4414.615234,4217.051270,4697.948730,4582.692383,4455.384766,4755.897461,2656.000000,4.000000,98.000000,,,,0.000000,4.000000,4.000000,4.000000,4.000000,4.000000,2.000000,4.000000,0.000000,2.000000,4.000000,4.000000,4.000000,4.000000,4.000000,33.333332,,,,,,,,,,,,,,,,,,,,,,,,,,,,
1638094657.924877,124.000000,0.000000,3896.025635,4239.487305,4360.384766,4301.794922,4322.179688,4219.102539,4218.333496,4481.794922,4399.358887,4208.846191,4683.333496,4584.358887,4454.358887,4738.461426,2069.000000,4.000000,98.000000,,,,0.000000,4.000000,4.000000,4.000000,4.000000,4.000000,2.000000,4.000000,0.000000,2.000000,4.000000,4.000000,4.000000,4.000000,4.000000,33.333332,,,,,,,,,,,,,,,,,31.000000,0.000000,0.251016,0.641541,-0.283936,0.666931,0.969845,-0.053717,0.005860,-44.891048,-2.977350,-24.512705
1638094657.932686,125.000000,0.000000,3881.666748,4238.717773,4358.846191,4316.282227,4327.563965,4217.692383,4217.051270,4482.051270,4385.000000,4211.666504,4662.563965,4580.897461,4441.025879,4712.692383,2513.000000,4.000000,98.000000,,,,0.000000,4.000000,4.000000,4.000000,4.000000,4.000000,2.000000,4.000000,0.000000,2.000000,4.000000,4.000000,4.000000,4.000000,4.000000,33.333332,,,,,,,,,,,,,,,,,,,,,,,,,,,,
1638094657.940594,126.000000,0.000000,3872.435791,4224.487305,4366.794922,4291.025879,4323.717773,4218.461426,4212.051270,4482.307617,4381.410156,4212.436035,4668.461426,4589.743652,4440.769043,4706.794922,2551.000000,4.000000,98.000000,,,,0.000000,4.000000,4.000000,4.000000,4.000000,4.000000,2.000000,4.000000,0.000000,2.000000,4.000000,4.000000,4.000000,4.000000,4.000000,33.333332,,,,,,,,,,,,,,,,,,,,,,,,,,,,
1638094657.948402,127.000000,0.000000,3868.589844,4219.230957,4364.358887,4276.922852,4302.692383,4218.205078,4200.256348,4487.436035,4380.000000,4205.256348,4683.205078,4597.948730,4454.358887,4700.512695,98.000000,4.000000,98.000000,,,,0.000000,4.000000,4.000000,4.000000,4.000000,4.000000,2.000000,4.000000,0.000000,2.000000,4.000000,4.000000,4.000000,4.000000,4.000000,33.333332,,,,,,,,,,,,,,,,,,,,,,,,,,,,
1638094657.956210,0.000000,0.000000,3860.384521,4228.077148,4342.820313,4287.948730,4290.512695,4212.820313,4188.333496,4490.000000,4370.641113,4197.948730,4674.230957,4591.025879,4453.333496,4686.666504,2678.000000,4.000000,98.000000,,,,0.000000,4.000000,4.000000,4.000000,4.000000,4.000000,2.000000,4.000000,0.000000,2.000000,4.000000,4.000000,4.000000,4.000000,4.000000,33.333332,,,,,,,,,,,,,,,,,0.000000,0.000000,0.251409,0.641541,-0.283875,0.666809,0.984495,-0.064461,0.012697,-44.935276,-2.896281,-24.361435
1638094657.963918,1.000000,0.000000,3855.000000,4234.743652,4348.461426,4282.948730,4300.512695,4214.615234,4207.307617,4486.794922,4370.000000,4195.384766,4668.077148,4590.256348,4445.000000,4681.922852,1688.000000,4.000000,98.000000,,,,0.000000,4.000000,4.000000,4.000000,4.000000,4.000000,2.000000,4.000000,0.000000,2.000000,4.000000,4.000000,4.000000,4.000000,4.000000,33.333332,,,,,,,,,,,,,,,,,,,,,,,,,,,,
1638094657.971827,2.000000,0.000000,3853.846191,4228.333496,4368.333496,4275.000000,4301.922852,4217.692383,4247.179688,4487.820313,4376.282227,4204.487305,4684.102539,4597.692383,4442.820313,4679.358887,2702.000000,4.000000,98.000000,,,,0.000000,4.000000,4.000000,4.000000,4.000000,4.000000,2.000000,4.000000,0.000000,2.000000,4.000000,4.000000,4.000000,4.000000,4.000000,33.333332,,,,,,,,,,,,,,,,,,,,,,,,,,,,
1638094657.979635,3.000000,0.000000,3846.153809,4219.743652,4357.820313,4285.000000,4295.384766,4213.461426,4270.384766,4491.282227,4370.769043,4219.615234,4690.000000,4588.333496,4446.922852,4668.589844,2620.000000,4.000000,98.000000,,,,0.000000,4.000000,4.000000,4.000000,4.000000,4.000000,2.000000,4.000000,0.000000,2.000000,4.000000,4.000000,4.000000,4.000000,4.000000,33.333332,,,,,,,,,,,,,,,,,,,,,,,,,,,,
1638094657.987543,4.000000,0.000000,3835.384521,4218.333496,4347.051270,4289.743652,4307.179688,4218.461426,4292.820313,4487.436035,4368.846191,4222.948730,4675.897461,4573.205078,4456.282227,4653.205078,2336.000000,4.000000,98.000000,,,,0.000000,4.000000,4.000000,4.000000,4.000000,4.000000,2.000000,4.000000,0.000000,2.000000,4.000000,4.000000,4.000000,4.000000,4.000000,33.333332,,,,,,,,,,,,,,,,,1.000000,0.000000,0.251439,0.641602,-0.283997,0.666687,0.981077,-0.058113,0.014162,-44.808414,-3.023320,-24.225292
1638094657.995351,5.000000,0.000000,3826.538574,4221.794922,4353.974121,4286.538574,4321.538574,4226.666504,4337.948730,4485.512695,4377.179688,4223.974121,4671.922852,4572.820313,4455.128418,4644.871582,1105.000000,4.000000,98.000000,,,,0.000000,4.000000,4.000000,4.000000,4.000000,4.000000,2.000000,4.000000,0.000000,2.000000,4.000000,4.000000,4.000000,4.000000,4.000000,33.333332,,,,,,,,,,,,,,,,,,,,,,,,,,,,
1638094658.003259,6.000000,0.000000,3816.538574,4220.256348,4346.282227,4293.589844,4317.563965,4221.410156,4379.102539,4491.922852,4372.051270,4226.025879,4679.615234,4575.384766,4448.333496,4638.205078,2356.000000,4.000000,98.000000,,,,0.000000,4.000000,4.000000,4.000000,4.000000,4.000000,2.000000,4.000000,0.000000,2.000000,4.000000,4.000000,4.000000,4.000000,4.000000,33.333332,,,,,,,,,,,,,,,,,,,,,,,,,,,,
1638094658.011067,7.000000,0.000000,3792.307617,4200.512695,4322.820313,4284.615234,4302.051270,4212.179688,4394.615234,4489.487305,4354.102539,4198.461426,4667.692383,4560.512695,4436.282227,4614.102539,0.000000,4.000000,98.000000,,,,0.000000,4.000000,4.000000,4.000000,4.000000,4.000000,2.000000,4.000000,0.000000,2.000000,4.000000,4.000000,4.000000,4.000000,4.000000,33.333332,,,,,,,,,,,,,,,,,,,,,,,,,,,,
1638094658.018976,8.000000,0.000000,3779.230713,4193.717773,4327.051270,4263.974121,4296.025879,4215.000000,4426.153809,4482.948730,4352.563965,4176.025879,4659.615234,4559.230957,4419.230957,4608.717773,1140.000000,4.000000,98.000000,,,,0.000000,4.000000,4.000000,4.000000,4.000000,4.000000,2.000000,4.000000,0.000000,4.000000,4.000000,4.000000,4.000000,4.000000,4.000000,50.000000,,,,,,,,,,,,,,,,,2.000000,0.000000,0.251389,0.641785,-0.284058,0.666504,0.966427,-0.049811,0.007813,-44.727573,-2.937654,-24.302763
1638094658.026784,9.000000,0.000000,3810.256348,4220.000000,4366.025879,4282.948730,4316.410156,4225.512695,4493.333496,4489.615234,4382.179688,4209.743652,4692.051270,4597.436035,4436.794922,4657.820313,3067.000000,4.000000,98.000000,,,,0.000000,4.000000,4.000000,4.000000,4.000000,4.000000,2.000000,4.000000,0.000000,4.000000,4.000000,4.000000,4.000000,4.000000,4.000000,50.000000,,,,,,,,,,,,,,,,,,,,,,,,,,,,
1638094658.034692,10.000000,0.000000,3838.974365,4240.897461,4388.461426,4311.538574,4336.922852,4227.051270,4547.692383,4496.794922,4383.461426,4242.820313,4716.153809,4617.307617,4471.922852,4691.794922,2551.000000,4.000000,98.000000,,,,0.000000,4.000000,4.000000,4.000000,4.000000,4.000000,2.000000,4.000000,0.000000,4.000000,4.000000,4.000000,4.000000,4.000000,4.000000,50.000000,,,,,,,,,,,,,,,,,,,,,,,,,,,,
1638094658.042500,11.000000,0.000000,3826.794922,4223.589844,4372.307617,4292.051270,4317.948730,4219.743652,4572.307617,4493.205078,4292.307617,4216.666504,4689.487305,4594.102539,4458.846191,4662.948730,2658.000000,4.000000,98.000000,,,,0.000000,4.000000,4.000000,4.000000,4.000000,4.000000,2.000000,4.000000,0.000000,4.000000,4.000000,4.000000,4.000000,4.000000,4.000000,50.000000,,,,,,,,,,,,,,,,,,,,,,,,,,,,
1638094658.050208,12.000000,0.000000,3802.820557,4200.000000,4349.743652,4264.615234,4292.051270,4214.487305,4592.563965,4490.384766,4195.769043,4186.025879,4668.205078,4582.307617,4427.948730,4636.538574,2094.000000,4.000000,98.000000,,,,0.000000,4.000000,4.000000,4.000000,4.000000,4.000000,2.000000,4.000000,0.000000,4.000000,4.000000,4.000000,4.000000,4.000000,4.000000,50.000000,,,,,,,,,,,,,,,,,3.000000,0.000000,0.251395,0.641846,-0.284058,0.666443,0.981565,-0.054206,0.005860,-44.754814,-2.910556,-24.472486
1638094658.058017,13.000000,0.000000,3798.076904,4204.871582,4345.128418,4280.128418,4299.743652,4216.666504,4622.179688,4492.051270,4189.487305,4203.589844,4688.461426,4590.256348,4434.871582,4638.974121,2518.000000,4.000000,98.000000,,,,0.000000,4.000000,4.000000,4.000000,4.000000,4.000000,2.000000,4.000000,0.000000,4.000000,4.000000,4.000000,4.000000,4.000000,4.000000,50.000000,,,,,,,,,,,,,,,,,,,,,,,,,,,,
1638094658.065725,14.000000,0.000000,3831.666748,4223.461426,4358.717773,4304.358887,4318.974121,4226.410156,4658.461426,4491.794922,4201.025879,4230.256348,4709.487305,4592.820313,4456.666504,4645.128418,2551.000000,4.000000,98.000000,,,,0.000000,4.000000,4.000000,4.000000,4.000000,4.000000,2.000000,4.000000,0.000000,4.000000,4.000000,4.000000,4.000000,4.000000,4.000000,50.000000,,,,,,,,,,,,,,,,,,,,,,,,,,,,
1638094658.073533,15.000000,0.000000,3874.871826,4225.512695,4373.974121,4299.615234,4319.871582,4229.358887,4677.692383,4491.922852,4167.820313,4231.153809,4707.179688,4597.820313,4464.871582,4659.102539,2658.000000,4.000000,98.000000,,,,0.000000,4.000000,4.000000,4.000000,4.000000,4.000000,2.000000,4.000000,0.000000,4.000000,4.000000,4.000000,4.000000,4.000000,4.000000,50.000000,,,,,,,,,,,,,,,,,,,,,,,,,,,,
1638094658.081241,16.000000,0.000000,3865.897461,4207.436035,4361.282227,4282.179688,4305.641113,4222.563965,4663.974121,4493.333496,4145.897461,4214.871582,4691.153809,4593.974121,4458.461426,4657.948730,0.000000,4.000000,98.000000,,,,0.000000,4.000000,4.000000,4.000000,4.000000,4.000000,2.000000,4.000000,0.000000,4.000000,4.000000,4.000000,4.000000,4.000000,4.000000,50.000000,,,,,,,,,,,,,,,,,4.000000,0.000000,0.251464,0.641846,-0.283997,0.666443,0.982542,-0.053229,0.000000,-44.729336,-2.952834,-24.525238
1638094658.089150,17.000000,0.000000,3831.153809,4196.282227,4348.205078,4280.128418,4292.436035,4223.974121,4653.589844,4491.794922,4154.230957,4209.615234,4692.692383,4583.333496,4453.974121,4647.307617,0.000000,4.000000,98.000000,,,,0.000000,4.000000,4.000000,4.000000,4.000000,4.000000,2.000000,4.000000,0.000000,4.000000,4.000000,4.000000,4.000000,4.000000,4.000000,50.000000,,,,,,,,,,,,,,,,,,,,,,,,,,,,
1638094658.096958,18.000000,0.000000,3848.076904,4200.512695,4364.230957,4281.794922,4295.512695,4231.410156,4660.256348,4490.641113,4150.000000,4220.384766,4710.641113,4586.282227,4457.436035,4665.897461,0.000000,4.000000,98.000000,,,,0.000000,4.000000,4.000000,4.000000,4.000000,4.000000,2.000000,4.000000,0.000000,4.000000,4.000000,4.000000,4.000000,4.000000,4.000000,50.000000,,,,,,,,,,,,,,,,,,,,,,,,,,,,
1638094658.104766,19.000000,0.000000,3915.128174,4205.897461,4371.282227,4275.256348,4308.717773,4229.358887,4646.538574,4492.307617,4134.102539,4222.307617,4702.307617,4587.051270,4451.794922,4678.333496,0.000000,4.000000,98.000000,,,,0.000000,4.000000,4.000000,4.000000,4.000000,4.000000,2.000000,4.000000,0.000000,4.000000,4.000000,4.000000,4.000000,4.000000,4.000000,50.000000,,,,,,,,,,,,,,,,,,,,,,,,,,,,
1638094658.112474,20.000000,0.000000,3966.923096,4203.077148,4359.102539,4278.333496,4304.102539,4220.769043,4618.589844,4490.641113,4125.769043,4214.358887,4683.205078,4581.666504,4443.205078,4655.000000,0.000000,4.000000,98.000000,,,,0.000000,4.000000,4.000000,4.000000,4.000000,4.000000,2.000000,4.000000,0.000000,4.000000,4.000000,4.000000,4.000000,4.000000,4.000000,50.000000,,,,,,,,,,,,,,,,,5.000000,0.000000,0.251359,0.641968,-0.283813,0.666443,0.985472,-0.045416,0.020999,-44.639732,-2.890883,-24.522715
1638094658.120282,21.000000,0.000000,3964.743652,4198.333496,4356.666504,4281.025879,4297.820313,4223.589844,4611.153809,4488.589844,4130.128418,4216.282227,4694.102539,4579.358887,4445.512695,4637.948730,0.000000,4.000000,98.000000,,,,0.000000,4.000000,4.000000,4.000000,4.000000,4.000000,2.000000,4.000000,0.000000,4.000000,4.000000,4.000000,4.000000,4.000000,4.000000,50.000000,,,,,,,,,,,,,,,,,,,,,,,,,,,,
1638094658.127991,22.000000,0.000000,3938.589844,4202.948730,4355.000000,4277.051270,4311.538574,4227.692383,4603.333496,4491.025879,4131.666504,4221.153809,4700.897461,4570.512695,4443.205078,4638.205078,0.000000,4.000000,98.000000,,,,0.000000,4.000000,4.000000,4.000000,4.000000,4.000000,2.000000,4.000000,0.000000,4.000000,4.000000,4.000000,4.000000,4.000000,4.000000,50.000000,,,,,,,,,,,,,,,,,,,,,,,,,,,,
1638094658.135799,23.000000,0.000000,3938.589844,4207.307617,4347.307617,4283.205078,4309.487305,4219.487305,4577.436035,4489.615234,4122.692383,4211.410156,4678.846191,4562.051270,4440.000000,4632.563965,0.000000,4.000000,98.000000,,,,0.000000,4.000000,4.000000,4.000000,4.000000,4.000000,2.000000,4.000000,0.000000,4.000000,4.000000,4.000000,4.000000,4.000000,4.000000,50.000000,,,,,,,,,,,,,,,,,,,,,,,,,,,,
1638094658.143507,24.000000,0.000000,3943.974365,4198.333496,4348.589844,4287.692383,4291.282227,4219.487305,4563.846191,4485.641113,4112.436035,4199.358887,4670.641113,4569.102539,4436.410156,4628.205078,0.000000,4.000000,98.000000,,,,0.000000,4.000000,4.000000,4.000000,4.000000,4.000000,2.000000,4.000000,0.000000,4.000000,4.000000,4.000000,4.000000,4.000000,4.000000,50.000000,,,,,,,,,,,,,,,,,6.000000,0.000000,0.251110,0.642029,-0.283752,0.666504,0.981565,-0.060066,0.014162,-44.725761,-2.918462,-24.520443
1638094658.151315,25.000000,0.000000,3940.512939,4204.102539,4362.307617,4286.153809,4306.922852,4231.794922,4574.358887,4489.743652,4099.102539,4210.128418,4689.487305,4585.000000,4436.282227,4643.846191,0.000000,4.000000,98.000000,,,,0.000000,4.000000,4.000000,4.000000,4.000000,4.000000,2.000000,4.000000,0.000000,4.000000,4.000000,4.000000,4.000000,4.000000,4.000000,50.000000,,,,,,,,,,,,,,,,,,,,,,,,,,,,
1638094658.159024,26.000000,0.000000,3960.512939,4218.717773,4366.410156,4293.974121,4327.051270,4230.384766,4566.538574,4494.230957,4096.025879,4237.307617,4702.051270,4595.512695,4462.179688,4664.871582,0.000000,4.000000,98.000000,,,,0.000000,4.000000,4.000000,4.000000,4.000000,4.000000,2.000000,4.000000,0.000000,4.000000,4.000000,4.000000,4.000000,4.000000,4.000000,50.000000,,,,,,,,,,,,,,,,,,,,,,,,,,,,
1638094658.166832,27.000000,0.000000,3980.000000,4198.974121,4345.128418,4283.077148,4306.410156,4219.102539,4523.974121,4489.871582,4099.871582,4244.230957,4695.000000,4586.794922,4483.205078,4658.333496,0.000000,4.000000,98.000000,,,,0.000000,4.000000,4.000000,4.000000,4.000000,4.000000,2.000000,4.000000,0.000000,4.000000,4.000000,4.000000,4.000000,4.000000,4.000000,50.000000,,,,,,,,,,,,,,,,,,,,,,,,,,,,
1638094658.174540,28.000000,0.000000,3974.871826,4179.487305,4334.102539,4256.410156,4291.153809,4223.461426,4498.077148,4488.461426,4099.871582,4234.230957,4693.589844,4575.641113,4473.461426,4639.230957,0.000000,4.000000,98.000000,,,,0.000000,4.000000,4.000000,4.000000,4.000000,4.000000,2.000000,4.000000,0.000000,4.000000,4.000000,4.000000,4.000000,4.000000,4.000000,50.000000,,,,,,,,,,,,,,,,,7.000000,0.000000,0.250978,0.642090,-0.283875,0.666443,0.986937,-0.056648,0.013674,-44.719852,-3.093282,-24.468399
1638094658.182448,29.000000,0.000000,3958.333252,4184.487305,4343.205078,4264.743652,4293.846191,4222.436035,4496.538574,4490.256348,4091.923096,4227.820313,4698.333496,4580.897461,4463.333496,4635.769043,0.000000,4.000000,98.000000,,,,0.000000,4.000000,4.000000,4.000000,4.000000,4.000000,2.000000,4.000000,0.000000,4.000000,4.000000,4.000000,4.000000,4.000000,4.000000,50.000000,,,,,,,,,,,,,,,,,,,,,,,,,,,,
1638094658.190257,30.000000,0.000000,3931.794922,4180.641113,4336.282227,4287.948730,4293.077148,4212.563965,4479.230957,4487.179688,4075.512939,4208.461426,4682.948730,4577.179688,4457.307617,4629.743652,0.000000,4.000000,98.000000,,,,0.000000,4.000000,4.000000,4.000000,4.000000,4.000000,2.000000,4.000000,0.000000,4.000000,4.000000,4.000000,4.000000,4.000000,4.000000,50.000000,,,,,,,,,,,,,,,,,,,,,,,,,,,,
1638094658.198165,31.000000,0.000000,3917.435791,4178.589844,4334.615234,4286.922852,4308.974121,4224.358887,4463.846191,4484.743652,4068.461426,4204.358887,4677.563965,4578.589844,4459.743652,4633.333496,0.000000,4.000000,98.000000,,,,0.000000,4.000000,4.000000,4.000000,4.000000,4.000000,2.000000,4.000000,0.000000,4.000000,4.000000,4.000000,4.000000,4.000000,4.000000,50.000000,,,,,,,,,,,,,,,,,,,,,,,,,,,,
1638094658.205973,32.000000,0.000000,3911.410156,4187.436035,4342.820313,4274.358887,4318.077148,4234.871582,4459.102539,4483.077148,4067.820557,4225.641113,4687.307617,4581.922852,4469.615234,4640.128418,0.000000,4.000000,98.000000,,,,0.000000,4.000000,4.000000,4.000000,4.000000,4.000000,2.000000,4.000000,0.000000,4.000000,4.000000,4.000000,4.000000,4.000000,4.000000,50.000000,1.000000,0.000000,0.000000,4.000000,3.000000,4.000000,3.000000,2.000000,0.000000,0.000000,1.000000,4.000000,1.000000,4.000000,4.000000,3.000000,8.000000,0.000000,0.251089,0.642029,-0.284058,0.666382,0.993285,-0.058601,0.015627,-44.781200,-3.033954,-24.321558
1638094658.213881,33.000000,0.000000,3892.948730,4181.794922,4328.974121,4270.897461,4298.461426,4231.282227,4440.512695,4481.282227,4054.102539,4220.128418,4673.717773,4559.358887,4464.743652,4618.717773,0.000000,4.000000,98.000000,,,,0.000000,4.000000,4.000000,4.000000,4.000000,4.000000,2.000000,4.000000,0.000000,4.000000,4.000000,4.000000,4.000000,4.000000,4.000000,50.000000,,,,,,,,,,,,,,,,,,,,,,,,,,,,
1638094658.221689,34.000000,0.000000,3872.051270,4169.358887,4315.384766,4267.436035,4290.512695,4232.307617,4417.436035,4481.025879,4035.256348,4187.948730,4653.333496,4545.769043,4445.769043,4600.769043,0.000000,4.000000,98.000000,,,,0.000000,4.000000,4.000000,4.000000,4.000000,4.000000,2.000000,4.000000,0.000000,4.000000,4.000000,4.000000,4.000000,4.000000,4.000000,50.000000,,,,,,,,,,,,,,,,,,,,,,,,,,,,
1638094658.229497,35.000000,0.000000,3862.948730,4171.153809,4328.589844,4253.205078,4295.897461,4228.077148,4408.846191,4482.436035,4034.615479,4177.307617,4661.282227,4565.512695,4442.179688,4608.846191,0.000000,4.000000,98.000000,,,,0.000000,4.000000,4.000000,4.000000,4.000000,4.000000,2.000000,4.000000,0.000000,4.000000,4.000000,4.000000,4.000000,4.000000,4.000000,50.000000,,,,,,,,,,,,,,,,,,,,,,,,,,,,
1638094658.237306,36.000000,0.000000,3867.820557,4177.179688,4353.717773,4257.563965,4293.461426,4224.358887,4408.077148,4484.743652,4050.512939,4204.230957,4682.948730,4593.205078,4470.000000,4624.615234,0.000000,4.000000,98.000000,,,,0.000000,4.000000,4.000000,4.000000,4.000000,4.000000,2.000000,4.000000,0.000000,4.000000,4.000000,4.000000,4.000000,4.000000,4.000000,50.000000,,,,,,,,,,,,,,,,,9.000000,0.000000,0.250951,0.642029,-0.284180,0.666382,0.979123,-0.038579,0.013674,-44.753078,-2.980559,-24.439402
1638094658.245014,37.000000,0.000000,3881.410156,4190.769043,4378.333496,4286.922852,4295.128418,4228.846191,4396.794922,4487.051270,4058.589844,4245.512695,4691.538574,4608.974121,4495.384766,4635.897461,0.000000,4.000000,98.000000,,,,0.000000,4.000000,4.000000,4.000000,4.000000,4.000000,2.000000,4.000000,0.000000,4.000000,4.000000,4.000000,4.000000,4.000000,4.000000,50.000000,,,,,,,,,,,,,,,,,,,,,,,,,,,,
1638094658.252822,38.000000,0.000000,3876.153809,4194.487305,4389.743652,4297.563965,4297.179688,4224.871582,4374.230957,4487.179688,4053.076904,4250.128418,4688.077148,4608.846191,4481.025879,4631.282227,0.000000,4.000000,98.000000,,,,0.000000,4.000000,4.000000,4.000000,4.000000,4.000000,2.000000,4.000000,0.000000,4.000000,4.000000,4.000000,4.000000,4.000000,4.000000,50.000000,,,,,,,,,,,,,,,,,,,,,,,,,,,,
1638094658.260531,39.000000,0.000000,3845.128174,4175.641113,4381.153809,4279.358887,4297.820313,4218.717773,4361.666504,4483.589844,4049.743652,4215.897461,4682.179688,4591.282227,4455.641113,4606.282227,0.000000,4.000000,98.000000,,,,0.000000,4.000000,4.000000,4.000000,4.000000,4.000000,2.000000,4.000000,0.000000,4.000000,4.000000,4.000000,4.000000,4.000000,4.000000,50.000000,,,,,,,,,,,,,,,,,,,,,,,,,,,,
1638094658.268339,40.000000,0.000000,3828.846191,4166.922852,4372.820313,4270.641113,4310.128418,4232.307617,4368.717773,4482.051270,4053.589844,4201.410156,4677.307617,4577.563965,4455.769043,4588.205078,0.000000,4.000000,98.000000,,,,0.000000,4.000000,4.000000,4.000000,4.000000,4.000000,2.000000,4.000000,0.000000,4.000000,4.000000,4.000000,4.000000,4.000000,4.000000,50.000000,,,,,,,,,,,,,,,,,10.000000,0.000000,0.250794,0.642090,-0.284180,0.666382,0.986937,-0.058601,0.011720,-44.727772,-3.015836,-24.428795
1638094658.276047,41.000000,0.000000,3832.179443,4170.641113,4367.563965,4272.820313,4312.436035,4235.384766,4363.461426,4481.922852,4044.230713,4200.897461,4664.230957,4574.743652,4454.230957,4586.153809,0.000000,4.000000,98.000000,,,,0.000000,4.000000,4.000000,4.000000,4.000000,4.000000,2.000000,4.000000,0.000000,4.000000,4.000000,4.000000,4.000000,4.000000,4.000000,50.000000,,,,,,,,,,,,,,,,,,,,,,,,,,,,
1638094658.283855,42.000000,0.000000,3827.820557,4164.871582,4357.179688,4267.051270,4294.871582,4214.871582,4332.820313,4478.846191,4031.794922,4192.692383,4656.410156,4567.563965,4440.256348,4583.077148,0.000000,4.000000,98.000000,,,,0.000000,4.000000,4.000000,4.000000,4.000000,4.000000,2.000000,4.000000,0.000000,4.000000,4.000000,4.000000,4.000000,4.000000,4.000000,50.000000,,,,,,,,,,,,,,,,,,,,,,,,,,,,
1638094658.291564,43.000000,0.000000,3825.256348,4166.794922,4356.410156,4267.563965,4290.000000,4216.794922,4316.025879,4476.922852,4015.256348,4204.102539,4667.820313,4569.230957,4443.717773,4586.922852,0.000000,4.000000,98.000000,,,,0.000000,4.000000,4.000000,4.000000,4.000000,4.000000,2.000000,4.000000,0.000000,4.000000,4.000000,4.000000,4.000000,4.000000,4.000000,50.000000,,,,,,,,,,,,,,,,,,,,,,,,,,,,
1638094658.299372,44.000000,0.000000,3832.435791,4180.128418,4362.820313,4275.384766,4296.025879,4235.256348,4312.820313,4477.307617,3962.435791,4214.487305,4666.410156,4573.974121,4446.410156,4591.538574,0.000000,4.000000,98.000000,,,,0.000000,4.000000,4.000000,4.000000,4.000000,4.000000,2.000000,4.000000,0.000000,4.000000,4.000000,4.000000,4.000000,4.000000,4.000000,50.000000,,,,,,,,,,,,,,,,,11.000000,0.000000,0.250794,0.642090,-0.284180,0.666382,0.974728,-0.067879,0.008790,-44.721661,-3.114253,-24.519249
1638094658.307080,45.000000,0.000000,3832.692383,4180.897461,4354.615234,4280.897461,4296.153809,4230.384766,4300.128418,4475.512695,3916.153809,4196.794922,4662.307617,4573.333496,4441.666504,4586.025879,0.000000,4.000000,98.000000,,,,0.000000,4.000000,4.000000,4.000000,4.000000,4.000000,2.000000,4.000000,0.000000,4.000000,4.000000,4.000000,4.000000,4.000000,4.000000,50.000000,,,,,,,,,,,,,,,,,,,,,,,,,,,,
1638094658.314888,46.000000,0.000000,3817.820557,4173.205078,4334.230957,4281.538574,4293.974121,4216.410156,4282.948730,4475.000000,3922.051270,4183.333496,4671.922852,4572.563965,4444.487305,4575.512695,0.000000,4.000000,98.000000,,,,0.000000,4.000000,4.000000,4.000000,4.000000,4.000000,2.000000,4.000000,0.000000,4.000000,4.000000,4.000000,4.000000,4.000000,4.000000,50.000000,,,,,,,,,,,,,,,,,,,,,,,,,,,,
1638094658.322597,47.000000,0.000000,3812.435791,4165.769043,4323.333496,4271.922852,4289.743652,4216.922852,4271.282227,4477.820313,3935.641113,4184.871582,4665.000000,4569.615234,4441.794922,4567.820313,0.000000,4.000000,98.000000,,,,0.000000,4.000000,4.000000,4.000000,4.000000,4.000000,2.000000,4.000000,0.000000,4.000000,4.000000,4.000000,4.000000,4.000000,4.000000,50.000000,,,,,,,,,,,,,,,,,,,,,,,,,,,,
1638094658.330405,48.000000,0.000000,3827.692383,4156.922852,4325.897461,4258.717773,4286.153809,4220.256348,4256.282227,4478.205078,3935.769287,4188.333496,4653.589844,4566.282227,4437.563965,4567.436035,0.000000,4.000000,98.000000,,,,0.000000,4.000000,4.000000,4.000000,4.000000,4.000000,2.000000,4.000000,0.000000,4.000000,4.000000,4.000000,4.000000,4.000000,4.000000,50.000000,,,,,,,,,,,,,,,,,12.000000,0.000000,0.250626,0.642029,-0.284180,0.666504,0.982542,-0.069833,0.009278,-44.732830,-3.102827,-24.450657
1638094658.338113,49.000000,0.000000,3839.102539,4158.589844,4336.538574,4253.461426,4289.230957,4217.820313,4245.384766,4478.974121,3941.923096,4201.282227,4663.717773,4572.948730,4446.025879,4571.282227,0.000000,4.000000,98.000000,,,,0.000000,4.000000,4.000000,4.000000,4.000000,4.000000,2.000000,4.000000,0.000000,4.000000,4.000000,4.000000,4.000000,4.000000,4.000000,50.000000,,,,,,,,,,,,,,,,,,,,,,,,,,,,
1638094658.345921,50.000000,0.000000,3825.897461,4158.461426,4341.025879,4263.333496,4293.205078,4223.717773,4253.333496,4480.000000,3947.307617,4205.384766,4668.077148,4581.153809,4446.153809,4569.615234,0.000000,4.000000,98.000000,,,,0.000000,4.000000,4.000000,4.000000,4.000000,4.000000,2.000000,4.000000,0.000000,4.000000,4.000000,4.000000,4.000000,4.000000,4.000000,50.000000,,,,,,,,,,,,,,,,,,,,,,,,,,,,
1638094658.353630,51.000000,0.000000,3812.307617,4147.307617,4329.358887,4271.282227,4291.666504,4231.922852,4261.922852,4477.692383,3950.256348,4190.897461,4655.128418,4569.615234,4433.077148,4556.410156,0.000000,4.000000,98.000000,,,,0.000000,4.000000,4.000000,4.000000,4.000000,4.000000,2.000000,4.000000,0.000000,4.000000,4.000000,4.000000,4.000000,4.000000,4.000000,50.000000,,,,,,,,,,,,,,,,,,,,,,,,,,,,
1638094658.361438,52.000000,0.000000,3828.846191,4155.897461,4326.666504,4267.563965,4295.128418,4233.461426,4263.461426,4476.794922,3960.000000,4188.205078,4650.769043,4556.666504,4433.589844,4554.230957,0.000000,4.000000,98.000000,,,,0.000000,4.000000,4.000000,4.000000,4.000000,4.000000,2.000000,4.000000,0.000000,4.000000,4.000000,4.000000,4.000000,4.000000,4.000000,50.000000,,,,,,,,,,,,,,,,,13.000000,0.000000,0.250569,0.642151,-0.284241,0.666382,0.985472,-0.045416,0.011232,-44.559544,-3.225878,-24.405592
1638094658.369146,53.000000,0.000000,3851.153809,4174.743652,4340.384766,4270.641113,4303.717773,4234.487305,4260.128418,4477.051270,3962.179443,4201.922852,4652.051270,4562.692383,4442.179688,4566.153809,0.000000,4.000000,98.000000,,,,0.000000,4.000000,4.000000,4.000000,4.000000,4.000000,2.000000,4.000000,0.000000,4.000000,4.000000,4.000000,4.000000,4.000000,4.000000,50.000000,,,,,,,,,,,,,,,,,,,,,,,,,,,,
1638094658.377054,54.000000,0.000000,3846.923096,4169.615234,4341.922852,4283.461426,4306.794922,4236.153809,4244.743652,4472.692383,3957.179443,4201.282227,4647.307617,4571.410156,4448.846191,4568.077148,0.000000,4.000000,98.000000,,,,0.000000,4.000000,4.000000,4.000000,4.000000,4.000000,2.000000,4.000000,0.000000,4.000000,4.000000,4.000000,4.000000,4.000000,4.000000,50.000000,,,,,,,,,,,,,,,,,,,,,,,,,,,,
1638094658.384862,55.000000,0.000000,3847.179443,4167.051270,4345.897461,4286.153809,4314.487305,4238.461426,4229.615234,4472.179688,3963.076904,4204.102539,4663.077148,4585.128418,4471.282227,4578.205078,0.000000,4.000000,98.000000,,,,0.000000,4.000000,4.000000,4.000000,4.000000,4.000000,2.000000,4.000000,0.000000,4.000000,4.000000,4.000000,4.000000,4.000000,4.000000,50.000000,,,,,,,,,,,,,,,,,,,,,,,,,,,,
1638094658.392771,56.000000,0.000000,3855.769287,4170.897461,4350.000000,4272.051270,4315.128418,4230.256348,4214.743652,4475.897461,3968.846191,4220.256348,4679.487305,4593.974121,4479.230957,4586.153809,0.000000,4.000000,98.000000,,,,0.000000,4.000000,4.000000,4.000000,4.000000,4.000000,2.000000,4.000000,0.000000,4.000000,4.000000,4.000000,4.000000,4.000000,4.000000,50.000000,,,,,,,,,,,,,,,,,14.000000,0.000000,0.250719,0.642029,-0.284241,0.666443,0.975705,-0.050787,0.010743,-44.586926,-3.236624,-24.348366
1638094658.400579,57.000000,0.000000,3836.794922,4157.307617,4328.846191,4264.230957,4295.769043,4218.333496,4194.102539,4471.922852,3961.666748,4207.948730,4661.666504,4578.589844,4453.717773,4558.461426,0.000000,4.000000,98.000000,,,,0.000000,4.000000,4.000000,4.000000,4.000000,4.000000,2.000000,4.000000,0.000000,4.000000,4.000000,4.000000,4.000000,4.000000,4.000000,50.000000,,,,,,,,,,,,,,,,,,,,,,,,,,,,
1638094658.408487,58.000000,0.000000,3820.512939,4143.077148,4315.512695,4272.436035,4285.641113,4219.487305,4191.282227,4468.589844,3965.641113,4188.974121,4645.897461,4563.846191,4442.436035,4529.871582,0.000000,4.000000,98.000000,,,,0.000000,4.000000,4.000000,4.000000,4.000000,4.000000,2.000000,4.000000,0.000000,4.000000,4.000000,4.000000,4.000000,4.000000,4.000000,50.000000,,,,,,,,,,,,,,,,,,,,,,,,,,,,
1638094658.416295,59.000000,0.000000,3828.205078,4138.205078,4320.897461,4275.769043,4295.769043,4223.846191,4203.846191,4470.769043,3986.538574,4203.333496,4658.589844,4566.410156,4457.948730,4526.922852,0.000000,4.000000,98.000000,,,,0.000000,4.000000,4.000000,4.000000,4.000000,4.000000,2.000000,4.000000,0.000000,4.000000,4.000000,4.000000,4.000000,4.000000,4.000000,50.000000,,,,,,,,,,,,,,,,,,,,,,,,,,,,
1638094658.424203,60.000000,0.000000,3824.743652,4132.563965,4309.102539,4259.615234,4297.436035,4224.230957,4195.000000,4470.769043,3996.538574,4204.871582,4660.512695,4564.358887,4464.871582,4520.641113,0.000000,4.000000,98.000000,,,,0.000000,4.000000,4.000000,4.000000,4.000000,4.000000,2.000000,4.000000,0.000000,4.000000,4.000000,4.000000,4.000000,4.000000,4.000000,50.000000,,,,,,,,,,,,,,,,,15.000000,0.000000,0.250737,0.641968,-0.284363,0.666443,0.976193,-0.049811,0.001465,-44.578232,-3.212961,-24.413530
1638094658.432011,61.000000,0.000000,3812.179443,4130.128418,4305.256348,4257.692383,4289.615234,4225.256348,4181.794922,4470.256348,3995.384521,4179.743652,4642.179688,4552.563965,4455.641113,4505.128418,0.000000,4.000000,98.000000,,,,0.000000,4.000000,4.000000,4.000000,4.000000,4.000000,2.000000,4.000000,0.000000,4.000000,4.000000,4.000000,4.000000,4.000000,4.000000,50.000000,,,,,,,,,,,,,,,,,,,,,,,,,,,,
1638094658.439920,62.000000,0.000000,3812.564209,4135.641113,4334.871582,4270.000000,4290.641113,4229.102539,4185.256348,4469.615234,4007.179443,4178.974121,4640.897461,4543.461426,4438.846191,4494.615234,0.000000,4.000000,98.000000,,,,0.000000,4.000000,4.000000,4.000000,4.000000,4.000000,2.000000,4.000000,0.000000,4.000000,4.000000,4.000000,4.000000,4.000000,4.000000,50.000000,,,,,,,,,,,,,,,,,,,,,,,,,,,,
1638094658.447728,63.000000,0.000000,3814.743652,4137.563965,4360.128418,4260.384766,4292.563965,4228.589844,4186.666504,4466.282227,4019.358887,4193.077148,4641.153809,4540.897461,4425.897461,4488.589844,0.000000,4.000000,98.000000,,,,0.000000,4.000000,4.000000,4.000000,4.000000,4.000000,2.000000,4.000000,0.000000,4.000000,4.000000,4.000000,4.000000,4.000000,4.000000,50.000000,,,,,,,,,,,,,,,,,,,,,,,,,,,,
1638094658.455536,64.000000,0.000000,3819.487061,4134.230957,4380.256348,4258.333496,4294.743652,4226.153809,4184.871582,4465.256348,4023.718018,4185.256348,4631.538574,4549.487305,4433.461426,4491.538574,2663.000000,4.000000,98.000000,,,,0.000000,4.000000,4.000000,4.000000,4.000000,4.000000,2.000000,4.000000,0.000000,4.000000,4.000000,4.000000,4.000000,4.000000,4.000000,50.000000,,,,,,,,,,,,,,,,,16.000000,0.000000,0.250824,0.641907,-0.284424,0.666443,0.985960,-0.063484,0.005860,-44.653744,-3.191665,-24.405510
1638094658.463344,65.000000,0.000000,3827.307617,4134.487305,4399.102539,4282.179688,4297.179688,4226.922852,4178.333496,4466.922852,4037.307617,4181.666504,4635.512695,4557.948730,4444.358887,4489.487305,1700.000000,4.000000,98.000000,,,,0.000000,4.000000,4.000000,4.000000,4.000000,4.000000,2.000000,4.000000,0.000000,4.000000,4.000000,4.000000,4.000000,4.000000,4.000000,50.000000,,,,,,,,,,,,,,,,,,,,,,,,,,,,
1638094658.471052,66.000000,0.000000,3827.564209,4142.820313,4391.410156,4275.128418,4294.487305,4228.974121,4171.025879,4466.410156,4056.794922,4198.077148,4642.179688,4561.922852,4445.128418,4485.769043,2697.000000,4.000000,98.000000,,,,0.000000,4.000000,4.000000,4.000000,4.000000,4.000000,2.000000,4.000000,0.000000,4.000000,4.000000,4.000000,4.000000,4.000000,4.000000,50.000000,,,,,,,,,,,,,,,,,,,,,,,,,,,,
1638094658.478861,67.000000,0.000000,3838.718018,4150.256348,4391.025879,4254.871582,4295.000000,4233.589844,4171.922852,4466.794922,4077.692383,4207.692383,4652.051270,4578.333496,4453.846191,4514.487305,2638.000000,4.000000,98.000000,,,,0.000000,4.000000,4.000000,4.000000,4.000000,4.000000,2.000000,4.000000,0.000000,4.000000,4.000000,4.000000,4.000000,4.000000,4.000000,50.000000,,,,,,,,,,,,,,,,,,,,,,,,,,,,
1638094658.486569,68.000000,0.000000,3853.846191,4148.717773,4450.512695,4271.025879,4294.615234,4229.871582,4156.922852,4467.307617,4092.435791,4204.871582,4667.179688,4589.871582,4468.461426,4530.256348,2336.000000,4.000000,98.000000,,,,0.000000,4.000000,4.000000,4.000000,4.000000,4.000000,2.000000,4.000000,0.000000,4.000000,4.000000,4.000000,4.000000,4.000000,4.000000,50.000000,,,,,,,,,,,,,,,,,17.000000,0.000000,0.250842,0.641846,-0.284546,0.666443,0.994262,-0.042974,0.006348,-44.655033,-3.072499,-24.498293
1638094658.494377,69.000000,0.000000,3857.307617,4152.820313,4519.743652,4279.615234,4294.615234,4219.487305,4132.820313,4466.538574,4097.179688,4213.974121,4673.077148,4582.563965,4476.410156,4511.538574,1118.000000,4.000000,98.000000,,,,0.000000,4.000000,4.000000,4.000000,4.000000,4.000000,2.000000,4.000000,0.000000,4.000000,4.000000,4.000000,4.000000,4.000000,4.000000,50.000000,,,,,,,,,,,,,,,,,,,,,,,,,,,,
1638094658.502085,70.000000,0.000000,3852.692383,4152.948730,4507.436035,4266.153809,4295.384766,4220.256348,4132.563965,4467.820313,4105.769043,4225.512695,4663.589844,4573.077148,4472.436035,4551.410156,2369.000000,4.000000,98.000000,,,,0.000000,4.000000,4.000000,4.000000,4.000000,4.000000,2.000000,4.000000,0.000000,4.000000,4.000000,4.000000,4.000000,4.000000,4.000000,50.000000,,,,,,,,,,,,,,,,,,,,,,,,,,,,
1638094658.509894,71.000000,0.000000,3852.051270,4136.922852,4443.077148,4266.153809,4288.589844,4230.641113,4142.948730,4466.410156,4107.948730,4215.897461,4646.922852,4564.358887,4455.641113,4645.897461,0.000000,4.000000,98.000000,,,,0.000000,4.000000,4.000000,4.000000,4.000000,4.000000,2.000000,4.000000,0.000000,4.000000,4.000000,4.000000,4.000000,4.000000,4.000000,50.000000,,,,,,,,,,,,,,,,,,,,,,,,,,,,
1638094658.517602,72.000000,0.000000,3869.230713,4128.077148,4416.538574,4267.820313,4287.307617,4227.948730,4142.563965,4461.922852,4085.256348,4203.589844,4635.128418,4554.487305,4440.384766,4675.000000,1225.000000,4.000000,98.000000,,,,0.000000,4.000000,4.000000,4.000000,4.000000,4.000000,2.000000,4.000000,0.000000,4.000000,4.000000,4.000000,4.000000,4.000000,4.000000,50.000000,,,,,,,,,,,,,,,,,18.000000,0.000000,0.250755,0.642151,-0.284363,0.666260,0.981077,-0.048834,0.003418,-44.739532,-3.165249,-24.448463
1638094658.525410,73.000000,0.000000,3900.128174,4137.307617,4421.666504,4264.487305,4297.307617,4215.384766,4142.051270,4463.077148,4055.897461,4188.589844,4637.051270,4550.128418,4441.538574,4635.641113,3037.000000,4.000000,98.000000,,,,0.000000,4.000000,4.000000,4.000000,4.000000,4.000000,2.000000,4.000000,0.000000,4.000000,4.000000,4.000000,4.000000,4.000000,4.000000,50.000000,,,,,,,,,,,,,,,,,,,,,,,,,,,,
1638094658.533119,74.000000,0.000000,3927.692383,4142.948730,4415.256348,4273.717773,4294.871582,4215.256348,4140.256348,4463.589844,4048.461426,4168.205078,4641.410156,4555.256348,4450.641113,4618.461426,2538.000000,4.000000,98.000000,,,,0.000000,4.000000,4.000000,4.000000,4.000000,4.000000,2.000000,4.000000,0.000000,4.000000,4.000000,4.000000,4.000000,4.000000,4.000000,50.000000,,,,,,,,,,,,,,,,,,,,,,,,,,,,
1638094658.541027,75.000000,0.000000,3941.666748,4138.846191,4408.846191,4271.666504,4289.871582,4223.846191,4136.922852,4460.000000,4053.846191,4173.205078,4638.461426,4562.179688,4455.256348,4626.282227,2645.000000,4.000000,98.000000,,,,0.000000,4.000000,4.000000,4.000000,4.000000,4.000000,2.000000,4.000000,0.000000,4.000000,4.000000,4.000000,4.000000,4.000000,4.000000,50.000000,,,,,,,,,,,,,,,,,,,,,,,,,,,,
1638094658.548835,76.000000,0.000000,3950.897461,4144.358887,4404.487305,4255.641113,4301.794922,4232.307617,4140.384766,4462.051270,4062.179443,4199.743652,4643.461426,4564.102539,4460.256348,4618.077148,2080.000000,4.000000,98.000000,,,,0.000000,4.000000,4.000000,4.000000,4.000000,4.000000,2.000000,4.000000,0.000000,4.000000,4.000000,4.000000,4.000000,4.000000,4.000000,50.000000,,,,,,,,,,,,,,,,,19.000000,0.000000,0.250753,0.641907,-0.284058,0.666626,0.991332,-0.070321,0.013185,-44.832245,-3.065390,-24.470284
1638094658.556743,77.000000,0.000000,3955.000000,4147.051270,4378.333496,4258.077148,4299.871582,4236.282227,4133.974121,4465.000000,4075.897461,4207.948730,4640.128418,4556.153809,4460.641113,4593.846191,2503.000000,4.000000,98.000000,,,,0.000000,4.000000,4.000000,4.000000,4.000000,4.000000,2.000000,4.000000,0.000000,4.000000,4.000000,4.000000,4.000000,4.000000,4.000000,50.000000,,,,,,,,,,,,,,,,,,,,,,,,,,,,
1638094658.564551,78.000000,0.000000,3972.820557,4153.077148,4362.948730,4276.410156,4286.794922,4233.974121,4124.230957,4463.717773,4098.846191,4207.051270,4640.000000,4557.179688,4465.512695,4585.641113,2538.000000,4.000000,98.000000,,,,0.000000,4.000000,4.000000,4.000000,4.000000,4.000000,2.000000,4.000000,0.000000,4.000000,4.000000,4.000000,4.000000,4.000000,4.000000,50.000000,,,,,,,,,,,,,,,,,,,,,,,,,,,,
1638094658.572459,79.000000,0.000000,4001.923096,4172.948730,4382.179688,4281.666504,4293.333496,4232.051270,4122.051270,4468.461426,4123.205078,4223.205078,4665.769043,4577.307617,4483.717773,4602.692383,2645.000000,4.000000,98.000000,,,,0.000000,4.000000,4.000000,4.000000,4.000000,4.000000,2.000000,4.000000,0.000000,4.000000,4.000000,4.000000,4.000000,4.000000,4.000000,50.000000,,,,,,,,,,,,,,,,,,,,,,,,,,,,
1638094658.580267,80.000000,0.000000,3990.128174,4166.410156,4383.077148,4271.410156,4293.974121,4223.333496,4109.358887,4478.846191,4130.384766,4231.922852,4666.153809,4580.897461,4488.589844,4596.282227,2080.000000,4.000000,98.000000,,,,0.000000,4.000000,4.000000,4.000000,4.000000,4.000000,2.000000,4.000000,0.000000,4.000000,4.000000,4.000000,4.000000,4.000000,4.000000,50.000000,,,,,,,,,,,,,,,,,20.000000,0.000000,0.250202,0.641724,-0.284241,0.666931,0.983030,-0.071298,0.012697,-44.732353,-3.075518,-24.423256
1638094658.588176,81.000000,0.000000,3949.743652,4139.358887,4354.871582,4262.307617,4283.077148,4211.538574,4093.718018,4488.717773,4130.128418,4214.487305,4648.205078,4561.025879,4467.820313,4565.897461,2503.000000,4.000000,98.000000,,,,0.000000,4.000000,4.000000,4.000000,4.000000,4.000000,2.000000,4.000000,0.000000,4.000000,4.000000,4.000000,4.000000,4.000000,4.000000,50.000000,,,,,,,,,,,,,,,,,,,,,,,,,,,,
1638094658.595984,82.000000,0.000000,3937.435791,4136.666504,4353.333496,4256.922852,4286.410156,4214.487305,4100.512695,4501.410156,4138.461426,4192.820313,4654.358887,4562.179688,4450.384766,4564.743652,2538.000000,4.000000,98.000000,,,,0.000000,4.000000,4.000000,4.000000,4.000000,4.000000,2.000000,4.000000,0.000000,4.000000,4.000000,4.000000,4.000000,4.000000,4.000000,50.000000,,,,,,,,,,,,,,,,,,,,,,,,,,,,
1638094658.603892,83.000000,0.000000,3953.461426,4143.461426,4374.102539,4261.794922,4296.922852,4219.358887,4116.410156,4510.128418,4147.692383,4185.769043,4641.666504,4577.692383,4453.077148,4571.666504,2645.000000,4.000000,98.000000,,,,0.000000,4.000000,4.000000,4.000000,4.000000,4.000000,2.000000,4.000000,0.000000,4.000000,4.000000,4.000000,4.000000,4.000000,4.000000,50.000000,,,,,,,,,,,,,,,,,,,,,,,,,,,,
1638094658.611700,84.000000,0.000000,3988.076904,4134.743652,4378.974121,4271.922852,4296.794922,4215.000000,4111.153809,4506.153809,4150.897461,4180.128418,4616.538574,4573.461426,4456.666504,4554.358887,2080.000000,4.000000,98.000000,,,,0.000000,4.000000,4.000000,4.000000,4.000000,4.000000,2.000000,4.000000,0.000000,4.000000,4.000000,4.000000,4.000000,4.000000,4.000000,50.000000,,,,,,,,,,,,,,,,,21.000000,0.000000,0.250086,0.641479,-0.284607,0.667053,0.971310,-0.062996,0.011720,-44.809116,-3.034633,-24.464262
1638094658.619608,85.000000,0.000000,4069.102539,4146.538574,4396.538574,4278.974121,4296.794922,4216.922852,4108.333496,4501.410156,4160.641113,4182.051270,4647.948730,4586.922852,4462.307617,4557.692383,2503.000000,4.000000,98.000000,,,,0.000000,4.000000,4.000000,4.000000,4.000000,4.000000,2.000000,4.000000,0.000000,4.000000,4.000000,4.000000,4.000000,4.000000,4.000000,50.000000,,,,,,,,,,,,,,,,,,,,,,,,,,,,
1638094658.627416,86.000000,0.000000,4161.025879,4165.769043,4426.410156,4277.051270,4290.641113,4216.666504,4116.282227,4499.871582,4177.307617,4203.333496,4682.179688,4619.358887,4474.871582,4584.871582,2538.000000,4.000000,98.000000,,,,0.000000,4.000000,4.000000,4.000000,4.000000,4.000000,2.000000,4.000000,0.000000,4.000000,4.000000,4.000000,4.000000,4.000000,4.000000,50.000000,,,,,,,,,,,,,,,,,,,,,,,,,,,,
1638094658.635325,87.000000,0.000000,4216.025879,4157.563965,4411.666504,4272.307617,4272.051270,4207.820313,4107.307617,4494.102539,4185.000000,4211.025879,4664.487305,4610.769043,4478.333496,4579.743652,2645.000000,4.000000,98.000000,,,,0.000000,4.000000,4.000000,4.000000,4.000000,4.000000,2.000000,4.000000,0.000000,4.000000,4.000000,4.000000,4.000000,4.000000,4.000000,50.000000,,,,,,,,,,,,,,,,,,,,,,,,,,,,
1638094658.643133,88.000000,0.000000,4256.025879,4150.256348,4375.384766,4274.487305,4271.794922,4210.000000,4098.589844,4487.948730,4181.282227,4200.641113,4652.051270,4582.692383,4466.410156,4557.051270,2080.000000,4.000000,98.000000,,,,0.000000,4.000000,4.000000,4.000000,4.000000,4.000000,2.000000,4.000000,0.000000,4.000000,4.000000,4.000000,4.000000,4.000000,4.000000,50.000000,,,,,,,,,,,,,,,,,22.000000,0.000000,0.250202,0.641235,-0.284912,0.667114,0.988402,-0.057136,0.011720,-44.811539,-2.981170,-24.484503
1638094658.650841,89.000000,0.000000,4290.128418,4156.922852,4360.256348,4266.282227,4289.615234,4214.487305,4110.256348,4486.538574,4182.563965,4195.384766,4655.256348,4575.256348,4455.000000,4549.487305,2503.000000,4.000000,98.000000,,,,0.000000,4.000000,4.000000,4.000000,4.000000,4.000000,2.000000,4.000000,0.000000,4.000000,4.000000,4.000000,4.000000,4.000000,4.000000,50.000000,,,,,,,,,,,,,,,,,,,,,,,,,,,,
1638094658.658649,90.000000,0.000000,4301.153809,4155.897461,4350.384766,4263.589844,4298.717773,4212.948730,4121.794922,4485.769043,4192.563965,4200.769043,4648.846191,4568.333496,4465.256348,4545.897461,2538.000000,4.000000,98.000000,,,,0.000000,4.000000,4.000000,4.000000,4.000000,4.000000,2.000000,4.000000,0.000000,4.000000,4.000000,4.000000,4.000000,4.000000,4.000000,50.000000,,,,,,,,,,,,,,,,,,,,,,,,,,,,
1638094658.666358,91.000000,0.000000,4275.769043,4142.051270,4329.358887,4277.820313,4297.436035,4215.256348,4124.358887,4482.692383,4201.025879,4211.282227,4642.948730,4557.436035,4479.743652,4540.256348,2645.000000,4.000000,98.000000,,,,0.000000,4.000000,4.000000,4.000000,4.000000,4.000000,2.000000,4.000000,0.000000,4.000000,4.000000,4.000000,4.000000,4.000000,4.000000,50.000000,,,,,,,,,,,,,,,,,,,,,,,,,,,,
1638094658.674166,92.000000,0.000000,4225.000000,4135.512695,4321.410156,4275.641113,4289.230957,4216.666504,4128.589844,4479.487305,4204.743652,4205.512695,4634.358887,4548.461426,4472.051270,4528.717773,2080.000000,4.000000,98.000000,,,,0.000000,4.000000,4.000000,4.000000,4.000000,4.000000,2.000000,4.000000,0.000000,4.000000,4.000000,4.000000,4.000000,4.000000,4.000000,50.000000,,,,,,,,,,,,,,,,,23.000000,0.000000,0.250126,0.641174,-0.284973,0.667175,0.981565,-0.061043,0.014162,-44.747051,-2.999719,-24.436052
1638094658.681874,93.000000,0.000000,4198.589844,4156.153809,4377.436035,4266.666504,4290.000000,4220.512695,4146.922852,4479.358887,4201.666504,4191.666504,4638.461426,4550.256348,4467.436035,4529.358887,2503.000000,4.000000,98.000000,,,,0.000000,4.000000,4.000000,4.000000,4.000000,4.000000,2.000000,4.000000,0.000000,4.000000,4.000000,4.000000,4.000000,4.000000,4.000000,50.000000,,,,,,,,,,,,,,,,,,,,,,,,,,,,
1638094658.689682,94.000000,0.000000,4206.538574,4178.974121,4477.820313,4290.641113,4313.846191,4230.256348,4176.282227,4480.256348,4202.820313,4208.717773,4666.153809,4576.922852,4486.666504,4557.820313,2538.000000,4.000000,98.000000,,,,0.000000,4.000000,4.000000,4.000000,4.000000,4.000000,2.000000,4.000000,0.000000,4.000000,4.000000,4.000000,4.000000,4.000000,4.000000,50.000000,,,,,,,,,,,,,,,,,,,,,,,,,,,,
1638094658.697391,95.000000,0.000000,4180.512695,4163.205078,4519.615234,4295.128418,4307.563965,4227.051270,4180.128418,4476.922852,4209.102539,4223.461426,4665.769043,4589.358887,4490.897461,4564.743652,2645.000000,4.000000,98.000000,,,,0.000000,4.000000,4.000000,4.000000,4.000000,4.000000,2.000000,4.000000,0.000000,4.000000,4.000000,4.000000,4.000000,4.000000,4.000000,50.000000,,,,,,,,,,,,,,,,,,,,,,,,,,,,
1638094658.705199,96.000000,0.000000,4119.358887,4133.077148,4487.051270,4248.333496,4261.410156,4209.743652,4169.102539,4474.358887,4176.666504,4199.358887,4638.589844,4563.589844,4468.205078,4532.692383,2080.000000,4.000000,98.000000,,,,0.000000,4.000000,4.000000,4.000000,4.000000,4.000000,2.000000,4.000000,0.000000,4.000000,4.000000,4.000000,4.000000,4.000000,4.000000,50.000000,1.000000,0.000000,0.000000,4.000000,1.000000,4.000000,4.000000,2.000000,0.000000,0.000000,1.000000,4.000000,4.000000,4.000000,4.000000,3.000000,24.000000,0.000000,0.250532,0.641052,-0.285034,0.667114,0.978147,-0.049811,0.004883,-44.689014,-3.016414,-24.392448
1638094658.712907,97.000000,0.000000,4102.051270,4143.974121,4471.794922,4247.692383,4268.974121,4216.153809,4204.102539,4476.922852,4111.922852,4201.282227,4645.256348,4558.461426,4470.000000,4528.717773,2503.000000,4.000000,98.000000,,,,0.000000,4.000000,4.000000,4.000000,4.000000,4.000000,2.000000,4.000000,0.000000,4.000000,4.000000,4.000000,4.000000,4.000000,4.000000,50.000000,,,,,,,,,,,,,,,,,,,,,,,,,,,,
1638094658.720715,98.000000,0.000000,4107.307617,4162.051270,4471.538574,4287.948730,4309.102539,4230.128418,4249.743652,4477.948730,4080.128174,4226.666504,4662.307617,4576.922852,4485.897461,4546.538574,2538.000000,4.000000,98.000000,,,,0.000000,4.000000,4.000000,4.000000,4.000000,4.000000,2.000000,4.000000,0.000000,4.000000,4.000000,4.000000,4.000000,4.000000,4.000000,50.000000,,,,,,,,,,,,,,,,,,,,,,,,,,,,
1638094658.728424,99.000000,0.000000,4073.846191,4134.487305,4435.769043,4275.128418,4292.948730,4220.512695,4248.205078,4473.974121,4077.948730,4200.897461,4638.974121,4561.153809,4461.538574,4522.563965,2645.000000,4.000000,98.000000,,,,0.000000,4.000000,4.000000,4.000000,4.000000,4.000000,2.000000,4.000000,0.000000,4.000000,4.000000,4.000000,4.000000,4.000000,4.000000,50.000000,,,,,,,,,,,,,,,,,,,,,,,,,,,,
1638094658.736332,100.000000,0.000000,4055.128174,4119.871582,4424.358887,4256.025879,4276.538574,4222.051270,4251.153809,4472.948730,4068.461426,4180.512695,4628.461426,4555.000000,4449.230957,4512.307617,2080.000000,4.000000,98.000000,,,,0.000000,4.000000,4.000000,4.000000,4.000000,4.000000,2.000000,4.000000,0.000000,4.000000,4.000000,4.000000,4.000000,4.000000,4.000000,50.000000,,,,,,,,,,,,,,,,,25.000000,0.000000,0.250415,0.641052,-0.284851,0.667236,0.984984,-0.058113,0.025882,-44.853447,-3.031439,-24.553204
1638094658.744140,101.000000,0.000000,4080.128174,4151.410156,4454.871582,4277.820313,4303.077148,4236.538574,4274.615234,4476.282227,4064.230713,4205.897461,4657.307617,4585.000000,4482.820313,4544.358887,2503.000000,4.000000,98.000000,,,,0.000000,4.000000,4.000000,4.000000,4.000000,4.000000,2.000000,4.000000,0.000000,4.000000,4.000000,4.000000,4.000000,4.000000,4.000000,50.000000,,,,,,,,,,,,,,,,,,,,,,,,,,,,
1638094658.752048,102.000000,0.000000,4081.923096,4163.974121,4460.897461,4285.641113,4305.512695,4225.384766,4267.436035,4474.487305,4070.769287,4207.820313,4663.717773,4588.717773,4488.717773,4551.153809,2538.000000,4.000000,98.000000,,,,0.000000,4.000000,4.000000,4.000000,4.000000,4.000000,2.000000,4.000000,0.000000,4.000000,4.000000,4.000000,4.000000,4.000000,4.000000,50.000000,,,,,,,,,,,,,,,,,,,,,,,,,,,,
1638094658.759856,103.000000,0.000000,4063.589844,4152.563965,4454.743652,4274.102539,4287.436035,4215.128418,4258.461426,4468.974121,4080.512939,4198.846191,4651.922852,4565.512695,4473.077148,4541.922852,2645.000000,4.000000,98.000000,,,,0.000000,4.000000,4.000000,4.000000,4.000000,4.000000,2.000000,4.000000,0.000000,4.000000,4.000000,4.000000,4.000000,4.000000,4.000000,50.000000,,,,,,,,,,,,,,,,,,,,,,,,,,,,
1638094658.767764,104.000000,0.000000,4060.384521,4154.230957,4463.077148,4274.230957,4295.000000,4230.128418,4274.871582,4467.820313,4093.589844,4210.641113,4657.436035,4558.333496,4480.897461,4549.230957,2080.000000,4.000000,98.000000,,,,0.000000,4.000000,4.000000,4.000000,4.000000,4.000000,2.000000,4.000000,0.000000,4.000000,4.000000,4.000000,4.000000,4.000000,4.000000,50.000000,,,,,,,,,,,,,,,,,26.000000,0.000000,0.250380,0.641174,-0.284607,0.667236,0.973263,-0.059089,0.018557,-44.734768,-2.978295,-24.564548
1638094658.775573,105.000000,0.000000,4053.718018,4159.358887,4473.333496,4276.794922,4298.077148,4228.717773,4281.025879,4467.948730,4103.974121,4212.692383,4657.948730,4570.384766,4487.051270,4557.051270,2503.000000,4.000000,98.000000,,,,0.000000,4.000000,4.000000,4.000000,4.000000,4.000000,2.000000,4.000000,0.000000,4.000000,4.000000,4.000000,4.000000,4.000000,4.000000,50.000000,,,,,,,,,,,,,,,,,,,,,,,,,,,,
1638094658.783481,106.000000,0.000000,4035.512939,4152.436035,4483.205078,4273.333496,4277.692383,4213.461426,4262.948730,4466.025879,4104.358887,4208.974121,4645.000000,4577.563965,4475.384766,4550.384766,2538.000000,4.000000,98.000000,,,,0.000000,4.000000,4.000000,4.000000,4.000000,4.000000,2.000000,4.000000,0.000000,4.000000,4.000000,4.000000,4.000000,4.000000,4.000000,50.000000,,,,,,,,,,,,,,,,,,,,,,,,,,,,
1638094658.791289,107.000000,0.000000,4025.641113,4150.769043,4470.769043,4278.205078,4279.487305,4223.846191,4256.025879,4465.000000,4104.358887,4210.769043,4645.128418,4572.948730,4472.563965,4540.641113,2645.000000,4.000000,98.000000,,,,0.000000,4.000000,4.000000,4.000000,4.000000,4.000000,2.000000,4.000000,0.000000,4.000000,4.000000,4.000000,4.000000,4.000000,4.000000,50.000000,,,,,,,,,,,,,,,,,,,,,,,,,,,,
1638094658.799197,108.000000,0.000000,4032.307617,4168.077148,4493.461426,4287.307617,4309.358887,4238.461426,4280.769043,4466.922852,4109.871582,4210.769043,4661.666504,4578.846191,4483.717773,4546.410156,2080.000000,4.000000,98.000000,,,,0.000000,4.000000,4.000000,4.000000,4.000000,4.000000,2.000000,4.000000,0.000000,4.000000,4.000000,4.000000,4.000000,4.000000,4.000000,50.000000,,,,,,,,,,,,,,,,,27.000000,0.000000,0.250687,0.641235,-0.284485,0.667114,0.986449,-0.056159,0.010743,-44.711292,-3.180466,-24.374762
1638094658.807005,109.000000,0.000000,4032.948730,4175.384766,4623.205078,4284.230957,4314.871582,4234.487305,4306.025879,4468.461426,4127.692383,4225.384766,4663.717773,4593.205078,4490.000000,4562.179688,2503.000000,4.000000,98.000000,,,,0.000000,4.000000,4.000000,4.000000,4.000000,4.000000,2.000000,4.000000,0.000000,4.000000,4.000000,4.000000,4.000000,4.000000,4.000000,50.000000,,,,,,,,,,,,,,,,,,,,,,,,,,,,
1638094658.814714,110.000000,0.000000,4007.564209,4152.307617,4707.948730,4266.922852,4291.410156,4223.077148,4299.358887,4465.897461,4152.948730,4234.743652,4642.692383,4579.102539,4477.179688,4553.717773,2538.000000,4.000000,98.000000,,,,0.000000,4.000000,4.000000,4.000000,4.000000,4.000000,2.000000,4.000000,0.000000,4.000000,4.000000,4.000000,4.000000,4.000000,4.000000,50.000000,,,,,,,,,,,,,,,,,,,,,,,,,,,,
1638094658.822522,111.000000,0.000000,3990.897461,4140.000000,4642.436035,4267.051270,4286.025879,4223.846191,4287.692383,4464.102539,4175.000000,4217.563965,4640.000000,4562.563965,4466.153809,4535.769043,2645.000000,4.000000,98.000000,,,,0.000000,4.000000,4.000000,4.000000,4.000000,4.000000,2.000000,4.000000,0.000000,4.000000,4.000000,4.000000,4.000000,4.000000,4.000000,50.000000,,,,,,,,,,,,,,,,,,,,,,,,,,,,
1638094658.830230,112.000000,0.000000,4006.538574,4155.769043,4581.410156,4287.051270,4302.692383,4232.820313,4298.461426,4465.256348,4185.769043,4215.256348,4661.922852,4584.615234,4476.025879,4544.615234,2080.000000,4.000000,98.000000,,,,0.000000,4.000000,4.000000,4.000000,4.000000,4.000000,2.000000,4.000000,0.000000,4.000000,4.000000,4.000000,4.000000,4.000000,4.000000,50.000000,,,,,,,,,,,,,,,,,28.000000,0.000000,0.251006,0.641174,-0.284485,0.667053,0.981565,-0.062508,0.007325,-44.856827,-3.112419,-24.487286
1638094658.838038,113.000000,0.000000,4016.281982,4157.051270,4577.179688,4282.563965,4301.282227,4235.128418,4301.410156,4461.410156,4179.230957,4223.077148,4657.307617,4588.077148,4469.358887,4545.512695,2503.000000,4.000000,98.000000,,,,0.000000,4.000000,4.000000,4.000000,4.000000,4.000000,2.000000,4.000000,0.000000,4.000000,4.000000,4.000000,4.000000,4.000000,4.000000,50.000000,,,,,,,,,,,,,,,,,,,,,,,,,,,,
1638094658.845747,114.000000,0.000000,4034.743652,4149.615234,4540.512695,4269.743652,4289.743652,4238.974121,4292.948730,4457.563965,4179.743652,4214.743652,4638.974121,4564.743652,4456.282227,4531.153809,2538.000000,4.000000,98.000000,,,,0.000000,4.000000,4.000000,4.000000,4.000000,4.000000,2.000000,4.000000,0.000000,4.000000,4.000000,4.000000,4.000000,4.000000,4.000000,50.000000,,,,,,,,,,,,,,,,,,,,,,,,,,,,
1638094658.853555,115.000000,0.000000,4079.102539,4156.922852,4504.102539,4275.384766,4307.179688,4244.487305,4297.692383,4461.025879,4197.948730,4214.615234,4647.948730,4566.666504,4475.512695,4532.436035,2645.000000,4.000000,98.000000,,,,0.000000,4.000000,4.000000,4.000000,4.000000,4.000000,2.000000,4.000000,0.000000,4.000000,4.000000,4.000000,4.000000,4.000000,4.000000,50.000000,,,,,,,,,,,,,,,,,,,,,,,,,,,,
1638094658.861263,116.000000,0.000000,4082.948730,4146.153809,4491.025879,4275.128418,4313.333496,4236.282227,4283.846191,4465.512695,4203.333496,4211.410156,4655.256348,4568.974121,4480.641113,4530.000000,2080.000000,4.000000,98.000000,,,,0.000000,4.000000,4.000000,4.000000,4.000000,4.000000,2.000000,4.000000,0.000000,4.000000,4.000000,4.000000,4.000000,4.000000,4.000000,50.000000,,,,,,,,,,,,,,,,,29.000000,0.000000,0.251053,0.641174,-0.284729,0.666931,0.979123,-0.053717,0.005860,-44.854481,-3.051177,-24.538557
1638094658.869071,117.000000,0.000000,4042.179443,4119.871582,4455.769043,4260.384766,4266.153809,4218.333496,4240.000000,4463.589844,4197.436035,4190.769043,4639.487305,4543.974121,4450.641113,4514.743652,2503.000000,4.000000,98.000000,,,,0.000000,4.000000,4.000000,4.000000,4.000000,4.000000,2.000000,4.000000,0.000000,4.000000,4.000000,4.000000,4.000000,4.000000,4.000000,50.000000,,,,,,,,,,,,,,,,,,,,,,,,,,,,
1638094658.876780,118.000000,0.000000,4024.230713,4119.358887,4421.282227,4256.025879,4236.025879,4217.179688,4218.589844,4460.641113,4211.153809,4195.641113,4630.000000,4526.538574,4441.153809,4512.179688,2538.000000,4.000000,98.000000,,,,0.000000,4.000000,4.000000,4.000000,4.000000,4.000000,2.000000,4.000000,0.000000,4.000000,4.000000,4.000000,4.000000,4.000000,4.000000,50.000000,,,,,,,,,,,,,,,,,,,,,,,,,,,,
1638094658.884588,119.000000,0.000000,4028.589844,4132.820313,4406.922852,4266.025879,4263.205078,4227.692383,4236.922852,4461.538574,4241.410156,4226.410156,4643.077148,4532.820313,4456.538574,4522.692383,2645.000000,4.000000,98.000000,,,,0.000000,4.000000,4.000000,4.000000,4.000000,4.000000,2.000000,4.000000,0.000000,4.000000,4.000000,4.000000,4.000000,4.000000,4.000000,50.000000,,,,,,,,,,,,,,,,,,,,,,,,,,,,
1638094658.892296,120.000000,0.000000,4025.000000,4137.820313,4405.256348,4273.717773,4284.743652,4231.282227,4260.000000,4463.589844,4268.461426,4237.051270,4666.794922,4547.948730,4463.974121,4533.205078,2080.000000,4.000000,98.000000,,,,0.000000,4.000000,4.000000,4.000000,4.000000,4.000000,2.000000,4.000000,0.000000,4.000000,4.000000,4.000000,4.000000,4.000000,4.000000,50.000000,,,,,,,,,,,,,,,,,30.000000,0.000000,0.250839,0.641113,-0.284912,0.666992,0.993285,-0.051764,0.006348,-44.785698,-3.012726,-24.618034
1638094658.900104,121.000000,0.000000,4030.256348,4144.615234,4416.794922,4279.871582,4290.000000,4237.692383,4273.461426,4465.769043,4296.922852,4237.820313,4684.487305,4572.051270,4474.358887,4553.589844,2503.000000,4.000000,98.000000,,,,0.000000,4.000000,4.000000,4.000000,4.000000,4.000000,2.000000,4.000000,0.000000,4.000000,4.000000,4.000000,4.000000,4.000000,4.000000,50.000000,,,,,,,,,,,,,,,,,,,,,,,,,,,,
1638094658.907813,122.000000,0.000000,4042.307617,4157.051270,4427.692383,4287.820313,4307.820313,4247.948730,4272.820313,4467.051270,4327.051270,4247.179688,4697.563965,4592.051270,4491.282227,4570.128418,2538.000000,4.000000,98.000000,,,,0.000000,4.000000,4.000000,4.000000,4.000000,4.000000,2.000000,4.000000,0.000000,4.000000,4.000000,4.000000,4.000000,4.000000,4.000000,50.000000,,,,,,,,,,,,,,,,,,,,,,,,,,,,
1638094658.915721,123.000000,0.000000,4039.743652,4164.615234,4433.846191,4300.769043,4318.717773,4242.563965,4255.641113,4465.897461,4338.974121,4240.512695,4709.615234,4592.307617,4490.000000,4559.743652,2645.000000,4.000000,98.000000,,,,0.000000,4.000000,4.000000,4.000000,4.000000,4.000000,2.000000,4.000000,0.000000,4.000000,4.000000,4.000000,4.000000,4.000000,4.000000,50.000000,,,,,,,,,,,,,,,,,,,,,,,,,,,,
1638094658.923529,124.000000,0.000000,4037.051270,4165.384766,4442.051270,4306.153809,4319.487305,4229.487305,4246.666504,4463.589844,4347.179688,4223.974121,4699.358887,4590.641113,4469.102539,4542.307617,2080.000000,4.000000,98.000000,,,,0.000000,4.000000,4.000000,4.000000,4.000000,4.000000,2.000000,4.000000,0.000000,4.000000,4.000000,4.000000,4.000000,4.000000,4.000000,50.000000,,,,,,,,,,,,,,,,,31.000000,0.000000,0.250601,0.641052,-0.284973,0.667114,0.995727,-0.049811,0.017580,-44.773796,-3.144787,-24.639565
1638094658.931437,125.000000,0.000000,4037.564209,4160.000000,4439.871582,4288.717773,4310.384766,4235.769043,4251.794922,4463.589844,4372.692383,4224.102539,4679.743652,4593.589844,4455.897461,4532.820313,2503.000000,4.000000,98.000000,,,,0.000000,4.000000,4.000000,4.000000,4.000000,4.000000,2.000000,4.000000,0.000000,4.000000,4.000000,4.000000,4.000000,4.000000,4.000000,50.000000,,,,,,,,,,,,,,,,,,,,,,,,,,,,
1638094658.939245,126.000000,0.000000,4031.153809,4151.153809,4425.256348,4274.230957,4287.179688,4240.384766,4247.948730,4464.743652,4388.205078,4229.358887,4694.487305,4593.333496,4463.846191,4523.333496,2538.000000,4.000000,98.000000,,,,0.000000,4.000000,4.000000,4.000000,4.000000,4.000000,2.000000,4.000000,0.000000,4.000000,4.000000,4.000000,4.000000,4.000000,4.000000,50.000000,,,,,,,,,,,,,,,,,,,,,,,,,,,,
1638094658.947153,127.000000,0.000000,4030.128174,4157.436035,4420.897461,4288.333496,4285.641113,4232.692383,4243.974121,4467.051270,4388.589844,4240.897461,4727.051270,4597.051270,4482.948730,4525.641113,98.000000,4.000000,98.000000,,,,0.000000,4.000000,4.000000,4.000000,4.000000,4.000000,2.000000,4.000000,0.000000,4.000000,4.000000,4.000000,4.000000,4.000000,4.000000,50.000000,,,,,,,,,,,,,,,,,,,,,,,,,,,,
1638094658.954962,0.000000,0.000000,4036.025635,4166.025879,4417.820313,4298.333496,4307.820313,4233.333496,4251.153809,4466.794922,4406.153809,4248.846191,4728.846191,4600.897461,4493.461426,4533.717773,2688.000000,4.000000,98.000000,,,,0.000000,4.000000,4.000000,4.000000,4.000000,4.000000,2.000000,4.000000,0.000000,4.000000,4.000000,4.000000,4.000000,4.000000,4.000000,50.000000,,,,,,,,,,,,,,,,,0.000000,0.000000,0.250588,0.640930,-0.284973,0.667236,0.970333,-0.062019,0.017092,-44.763081,-3.063642,-24.742275
1638094658.962870,1.000000,0.000000,4042.307617,4156.153809,4406.794922,4288.333496,4318.077148,4234.743652,4243.589844,4464.230957,4427.051270,4230.512695,4722.051270,4595.256348,4492.948730,4526.282227,1728.000000,4.000000,98.000000,,,,0.000000,4.000000,4.000000,4.000000,4.000000,4.000000,2.000000,4.000000,0.000000,4.000000,4.000000,4.000000,4.000000,4.000000,4.000000,50.000000,,,,,,,,,,,,,,,,,,,,,,,,,,,,
1638094658.970678,2.000000,0.000000,4044.487061,4150.000000,4400.897461,4291.282227,4309.871582,4231.538574,4216.794922,4467.051270,4422.563965,4219.487305,4732.820313,4593.205078,4488.077148,4521.282227,2700.000000,4.000000,98.000000,,,,0.000000,4.000000,4.000000,4.000000,4.000000,4.000000,2.000000,4.000000,0.000000,4.000000,4.000000,4.000000,4.000000,4.000000,4.000000,50.000000,,,,,,,,,,,,,,,,,,,,,,,,,,,,
1638094658.978586,3.000000,0.000000,4031.153809,4153.589844,4386.794922,4289.871582,4287.307617,4229.358887,4196.538574,4468.333496,4410.256348,4235.769043,4733.846191,4585.256348,4476.282227,4519.487305,2660.000000,4.000000,98.000000,,,,0.000000,4.000000,4.000000,4.000000,4.000000,4.000000,2.000000,4.000000,0.000000,4.000000,4.000000,4.000000,4.000000,4.000000,4.000000,50.000000,,,,,,,,,,,,,,,,,,,,,,,,,,,,
1638094658.986394,4.000000,0.000000,4014.230713,4152.179688,4358.205078,4277.051270,4270.000000,4229.615234,4195.256348,4465.000000,4417.820313,4242.692383,4730.897461,4564.230957,4469.615234,4509.615234,2358.000000,4.000000,98.000000,,,,0.000000,4.000000,4.000000,4.000000,4.000000,4.000000,2.000000,4.000000,0.000000,4.000000,4.000000,4.000000,4.000000,4.000000,4.000000,50.000000,,,,,,,,,,,,,,,,,1.000000,0.000000,0.250502,0.640991,-0.284912,0.667236,0.970822,-0.068856,0.010255,-44.703442,-3.157277,-24.634714
1638094658.994302,5.000000,0.000000,4014.358887,4153.333496,4341.282227,4278.461426,4280.384766,4234.102539,4200.897461,4467.307617,4441.410156,4243.077148,4741.922852,4554.615234,4477.436035,4505.256348,1137.000000,4.000000,98.000000,,,,0.000000,4.000000,4.000000,4.000000,4.000000,4.000000,2.000000,4.000000,0.000000,4.000000,4.000000,4.000000,4.000000,4.000000,4.000000,50.000000,,,,,,,,,,,,,,,,,,,,,,,,,,,,
1638094659.002111,6.000000,0.000000,4014.230713,4155.769043,4337.692383,4280.769043,4298.846191,4237.563965,4204.102539,4472.051270,4451.153809,4251.922852,4746.666504,4555.384766,4470.897461,4506.025879,2393.000000,4.000000,98.000000,,,,0.000000,4.000000,4.000000,4.000000,4.000000,4.000000,2.000000,4.000000,0.000000,4.000000,4.000000,4.000000,4.000000,4.000000,4.000000,50.000000,,,,,,,,,,,,,,,,,,,,,,,,,,,,
1638094659.009819,7.000000,0.000000,3999.487061,4146.794922,4325.128418,4274.487305,4294.358887,4230.769043,4201.025879,4469.871582,4438.461426,4248.333496,4748.077148,4548.974121,4452.307617,4516.025879,0.000000,4.000000,98.000000,,,,0.000000,4.000000,4.000000,4.000000,4.000000,4.000000,2.000000,4.000000,0.000000,4.000000,4.000000,4.000000,4.000000,4.000000,4.000000,50.000000,,,,,,,,,,,,,,,,,,,,,,,,,,,,
1638094659.017627,8.000000,0.000000,3989.487061,4133.974121,4308.717773,4272.436035,4282.307617,4230.512695,4189.615234,4468.717773,4432.948730,4230.128418,4757.051270,4545.000000,4450.384766,4541.153809,1209.000000,4.000000,98.000000,,,,0.000000,4.000000,4.000000,4.000000,4.000000,4.000000,2.000000,4.000000,0.000000,4.000000,4.000000,4.000000,4.000000,4.000000,4.000000,50.000000,,,,,,,,,,,,,,,,,2.000000,0.000000,0.250675,0.640869,-0.285034,0.667236,0.985960,-0.069833,0.007813,-44.633095,-3.174883,-24.637909
1638094659.025335,9.000000,0.000000,3997.564209,4136.922852,4315.769043,4278.846191,4288.717773,4246.410156,4186.794922,4472.307617,4447.179688,4228.846191,4769.743652,4553.205078,4460.128418,4560.769043,3061.000000,4.000000,98.000000,,,,0.000000,4.000000,4.000000,4.000000,4.000000,4.000000,2.000000,4.000000,0.000000,4.000000,4.000000,4.000000,4.000000,4.000000,4.000000,50.000000,,,,,,,,,,,,,,,,,,,,,,,,,,,,
1638094659.033144,10.000000,0.000000,4018.974365,4156.538574,4341.666504,4287.563965,4303.589844,4247.820313,4200.256348,4471.922852,4462.820313,4241.025879,4792.436035,4570.128418,4472.051270,4567.692383,2560.000000,4.000000,98.000000,,,,0.000000,4.000000,4.000000,4.000000,4.000000,4.000000,2.000000,4.000000,0.000000,4.000000,4.000000,4.000000,4.000000,4.000000,4.000000,50.000000,,,,,,,,,,,,,,,,,,,,,,,,,,,,
1638094659.040852,11.000000,0.000000,4036.153809,4167.820313,4348.846191,4292.820313,4301.410156,4231.538574,4210.000000,4471.666504,4474.487305,4241.282227,4805.769043,4583.077148,4483.077148,4575.128418,2682.000000,4.000000,98.000000,,,,0.000000,4.000000,4.000000,4.000000,4.000000,4.000000,2.000000,4.000000,0.000000,4.000000,4.000000,4.000000,4.000000,4.000000,4.000000,50.000000,,,,,,,,,,,,,,,,,,,,,,,,,,,,
1638094659.048660,12.000000,0.000000,4036.025635,4160.897461,4339.743652,4289.743652,4292.051270,4228.461426,4202.179688,4472.948730,4491.666504,4240.512695,4793.461426,4585.769043,4482.179688,4578.461426,2097.000000,4.000000,98.000000,,,,0.000000,4.000000,4.000000,4.000000,4.000000,4.000000,2.000000,4.000000,0.000000,4.000000,4.000000,4.000000,4.000000,4.000000,4.000000,50.000000,,,,,,,,,,,,,,,,,3.000000,0.000000,0.250855,0.640808,-0.285156,0.667175,0.975705,-0.045416,0.011232,-44.703121,-3.074061,-24.557451
1638094659.056368,13.000000,0.000000,4022.307617,4152.563965,4334.615234,4283.333496,4293.717773,4235.000000,4183.717773,4471.794922,4508.077148,4240.000000,4784.102539,4582.307617,4472.563965,4564.743652,2530.000000,4.000000,98.000000,,,,0.000000,4.000000,4.000000,4.000000,4.000000,4.000000,2.000000,4.000000,0.000000,4.000000,4.000000,4.000000,4.000000,4.000000,4.000000,50.000000,,,,,,,,,,,,,,,,,,,,,,,,,,,,
1638094659.064277,14.000000,0.000000,4015.256348,4149.615234,4329.358887,4271.410156,4286.153809,4229.871582,4167.563965,4470.512695,4519.230957,4230.384766,4787.948730,4582.436035,4471.025879,4551.410156,2560.000000,4.000000,98.000000,,,,0.000000,4.000000,4.000000,4.000000,4.000000,4.000000,2.000000,4.000000,0.000000,4.000000,4.000000,4.000000,4.000000,4.000000,4.000000,50.000000,,,,,,,,,,,,,,,,,,,,,,,,,,,,
1638094659.072085,15.000000,0.000000,4038.846191,4157.051270,4332.692383,4269.358887,4274.102539,4226.538574,4164.102539,4472.307617,4532.692383,4233.589844,4795.512695,4588.461426,4476.025879,4562.051270,2682.000000,4.000000,98.000000,,,,0.000000,4.000000,4.000000,4.000000,4.000000,4.000000,2.000000,4.000000,0.000000,4.000000,4.000000,4.000000,4.000000,4.000000,4.000000,50.000000,,,,,,,,,,,,,,,,,,,,,,,,,,,,
1638094659.079893,16.000000,0.000000,4062.179443,4172.948730,4339.102539,4294.615234,4287.436035,4234.102539,4170.512695,4473.589844,4548.717773,4250.641113,4802.948730,4585.769043,4472.692383,4577.563965,0.000000,4.000000,98.000000,,,,0.000000,4.000000,4.000000,4.000000,4.000000,4.000000,2.000000,4.000000,0.000000,4.000000,4.000000,4.000000,4.000000,4.000000,4.000000,50.000000,,,,,,,,,,,,,,,,,4.000000,0.000000,0.250924,0.640808,-0.285095,0.667175,0.978635,-0.065438,0.018557,-44.566143,-3.233322,-24.585039
1638094659.087601,17.000000,0.000000,4044.743652,4169.487305,4319.871582,4300.512695,4299.743652,4236.282227,4169.230957,4476.282227,4553.077148,4247.436035,4797.051270,4566.794922,4460.000000,4560.000000,0.000000,4.000000,98.000000,,,,0.000000,4.000000,4.000000,4.000000,4.000000,4.000000,2.000000,4.000000,0.000000,4.000000,4.000000,4.000000,4.000000,4.000000,4.000000,50.000000,,,,,,,,,,,,,,,,,,,,,,,,,,,,
1638094659.095509,18.000000,0.000000,4017.307617,4149.615234,4294.230957,4278.205078,4285.384766,4231.153809,4165.897461,4481.153809,4544.358887,4234.358887,4780.512695,4551.794922,4453.205078,4532.820313,0.000000,4.000000,98.000000,,,,0.000000,4.000000,4.000000,4.000000,4.000000,4.000000,2.000000,4.000000,0.000000,4.000000,4.000000,4.000000,4.000000,4.000000,4.000000,50.000000,,,,,,,,,,,,,,,,,,,,,,,,,,,,
1638094659.103318,19.000000,0.000000,4020.000000,4146.666504,4297.948730,4272.436035,4277.820313,4232.307617,4169.743652,4478.846191,4534.230957,4234.358887,4771.538574,4557.948730,4459.615234,4536.538574,0.000000,4.000000,98.000000,,,,0.000000,4.000000,4.000000,4.000000,4.000000,4.000000,2.000000,4.000000,0.000000,4.000000,4.000000,4.000000,4.000000,4.000000,4.000000,50.000000,,,,,,,,,,,,,,,,,,,,,,,,,,,,
1638094659.111226,20.000000,0.000000,4023.974365,4149.102539,4299.615234,4272.436035,4283.205078,4233.846191,4163.974121,4472.948730,4520.000000,4224.102539,4759.615234,4561.282227,4453.846191,4541.282227,0.000000,4.000000,98.000000,,,,0.000000,4.000000,4.000000,4.000000,4.000000,4.000000,2.000000,4.000000,0.000000,4.000000,4.000000,4.000000,4.000000,4.000000,4.000000,50.000000,,,,,,,,,,,,,,,,,5.000000,0.000000,0.251000,0.640869,-0.285034,0.667114,0.980588,-0.049322,0.018557,-44.592861,-3.359990,-24.593203
1638094659.119034,21.000000,0.000000,4005.641113,4133.717773,4269.743652,4254.487305,4267.948730,4222.563965,4137.307617,4471.666504,4492.563965,4205.641113,4732.692383,4542.051270,4430.512695,4518.333496,0.000000,4.000000,98.000000,,,,0.000000,4.000000,4.000000,4.000000,4.000000,4.000000,2.000000,4.000000,0.000000,4.000000,4.000000,4.000000,4.000000,4.000000,4.000000,50.000000,,,,,,,,,,,,,,,,,,,,,,,,,,,,
1638094659.126942,22.000000,0.000000,4007.179443,4132.051270,4256.153809,4263.205078,4262.051270,4217.948730,4128.717773,4472.436035,4469.487305,4207.051270,4724.230957,4539.615234,4433.589844,4512.051270,0.000000,4.000000,98.000000,,,,0.000000,4.000000,4.000000,4.000000,4.000000,4.000000,2.000000,4.000000,0.000000,4.000000,4.000000,4.000000,4.000000,4.000000,4.000000,50.000000,,,,,,,,,,,,,,,,,,,,,,,,,,,,
1638094659.134750,23.000000,0.000000,4040.641113,4158.461426,4298.717773,4289.615234,4293.717773,4229.871582,4154.743652,4473.461426,4480.512695,4237.179688,4748.589844,4572.179688,4468.846191,4548.333496,0.000000,4.000000,98.000000,,,,0.000000,4.000000,4.000000,4.000000,4.000000,4.000000,2.000000,4.000000,0.000000,4.000000,4.000000,4.000000,4.000000,4.000000,4.000000,50.000000,,,,,,,,,,,,,,,,,,,,,,,,,,,,
1638094659.142658,24.000000,0.000000,4052.820557,4168.077148,4308.846191,4277.307617,4305.384766,4236.025879,4156.666504,4473.717773,4494.743652,4261.153809,4757.820313,4586.410156,4475.897461,4566.538574,0.000000,4.000000,98.000000,,,,0.000000,4.000000,4.000000,4.000000,4.000000,4.000000,2.000000,4.000000,0.000000,4.000000,4.000000,4.000000,4.000000,4.000000,4.000000,50.000000,,,,,,,,,,,,,,,,,6.000000,0.000000,0.250970,0.640808,-0.284912,0.667236,0.984984,-0.055183,0.026859,-44.583576,-3.157324,-24.567215
1638094659.150466,25.000000,0.000000,4032.435791,4156.282227,4273.589844,4258.205078,4277.820313,4226.538574,4120.128418,4471.666504,4476.153809,4239.615234,4729.102539,4558.974121,4443.717773,4538.589844,0.000000,4.000000,98.000000,,,,0.000000,4.000000,4.000000,4.000000,4.000000,4.000000,2.000000,4.000000,0.000000,4.000000,4.000000,4.000000,4.000000,4.000000,4.000000,50.000000,,,,,,,,,,,,,,,,,,,,,,,,,,,,
1638094659.158375,26.000000,0.000000,4026.410156,4160.384766,4383.205078,4276.666504,4275.641113,4221.153809,4112.179688,4471.153809,4451.794922,4213.589844,4712.307617,4546.666504,4435.384766,4527.179688,0.000000,4.000000,98.000000,,,,0.000000,4.000000,4.000000,4.000000,4.000000,4.000000,2.000000,4.000000,0.000000,4.000000,4.000000,4.000000,4.000000,4.000000,4.000000,50.000000,,,,,,,,,,,,,,,,,,,,,,,,,,,,
1638094659.166183,27.000000,0.000000,4050.512939,4186.666504,4666.794922,4307.820313,4312.692383,4229.487305,4145.769043,4475.256348,4452.692383,4238.589844,4732.948730,4575.384766,4462.563965,4555.000000,0.000000,4.000000,98.000000,,,,0.000000,4.000000,4.000000,4.000000,4.000000,4.000000,2.000000,4.000000,0.000000,4.000000,4.000000,4.000000,4.000000,4.000000,4.000000,50.000000,,,,,,,,,,,,,,,,,,,,,,,,,,,,
1638094659.174091,28.000000,0.000000,4057.948730,4190.128418,4878.205078,4303.846191,4317.692383,4235.512695,4155.000000,4476.410156,4460.512695,4258.846191,4736.794922,4589.871582,4469.102539,4562.948730,0.000000,4.000000,98.000000,,,,0.000000,4.000000,4.000000,4.000000,4.000000,4.000000,2.000000,4.000000,0.000000,4.000000,4.000000,4.000000,4.000000,4.000000,4.000000,50.000000,,,,,,,,,,,,,,,,,7.000000,0.000000,0.250638,0.640747,-0.284912,0.667419,0.983030,-0.058113,0.013674,-44.425217,-3.274925,-24.477161
1638094659.181899,29.000000,0.000000,4046.153809,4170.641113,4876.922852,4286.922852,4288.077148,4234.487305,4140.256348,4475.897461,4461.282227,4243.589844,4717.307617,4577.563965,4457.563965,4542.563965,0.000000,4.000000,98.000000,,,,0.000000,4.000000,4.000000,4.000000,4.000000,4.000000,2.000000,4.000000,0.000000,4.000000,4.000000,4.000000,4.000000,4.000000,4.000000,50.000000,,,,,,,,,,,,,,,,,,,,,,,,,,,,
1638094659.189807,30.000000,0.000000,4044.487061,4171.922852,4754.102539,4281.025879,4276.153809,4229.615234,4136.538574,4478.846191,4456.666504,4243.589844,4709.230957,4568.717773,4455.897461,4532.692383,0.000000,4.000000,98.000000,,,,0.000000,4.000000,4.000000,4.000000,4.000000,4.000000,2.000000,4.000000,0.000000,4.000000,4.000000,4.000000,4.000000,4.000000,4.000000,50.000000,,,,,,,,,,,,,,,,,,,,,,,,,,,,
1638094659.197615,31.000000,0.000000,4031.281982,4164.487305,4614.615234,4263.589844,4271.282227,4222.179688,4118.461426,4478.974121,4447.820313,4231.538574,4695.512695,4547.563965,4438.077148,4535.769043,0.000000,4.000000,98.000000,,,,0.000000,4.000000,4.000000,4.000000,4.000000,4.000000,2.000000,4.000000,0.000000,4.000000,4.000000,4.000000,4.000000,4.000000,4.000000,50.000000,,,,,,,,,,,,,,,,,,,,,,,,,,,,
1638094659.205324,32.000000,0.000000,4013.205078,4138.846191,4522.436035,4252.051270,4263.461426,4213.333496,4093.974365,4475.256348,4453.205078,4206.922852,4683.717773,4525.512695,4419.358887,4557.307617,0.000000,4.000000,98.000000,,,,0.000000,4.000000,4.000000,4.000000,4.000000,4.000000,2.000000,4.000000,0.000000,4.000000,4.000000,4.000000,4.000000,4.000000,4.000000,50.000000,1.000000,0.000000,1.000000,4.000000,0.000000,4.000000,4.000000,2.000000,0.000000,0.000000,0.000000,4.000000,4.000000,4.000000,4.000000,3.000000,8.000000,0.000000,0.250400,0.640686,-0.284973,0.667542,0.976193,-0.048834,0.000000,-44.516029,-3.164099,-24.379444
1638094659.213132,33.000000,0.000000,4041.153809,4162.820313,4497.820313,4280.641113,4281.538574,4217.051270,4104.102539,4474.615234,4470.256348,4226.922852,4698.077148,4545.000000,4443.974121,4617.307617,0.000000,4.000000,98.000000,,,,0.000000,4.000000,4.000000,4.000000,4.000000,4.000000,2.000000,4.000000,0.000000,4.000000,4.000000,4.000000,4.000000,4.000000,4.000000,50.000000,,,,,,,,,,,,,,,,,,,,,,,,,,,,
1638094659.220840,34.000000,0.000000,4075.512939,4203.846191,4476.410156,4297.179688,4299.230957,4227.563965,4110.512695,4474.871582,4472.307617,4249.615234,4697.820313,4567.820313,4465.769043,4669.358887,0.000000,4.000000,98.000000,,,,0.000000,4.000000,4.000000,4.000000,4.000000,4.000000,2.000000,4.000000,0.000000,4.000000,4.000000,4.000000,4.000000,4.000000,4.000000,50.000000,,,,,,,,,,,,,,,,,,,,,,,,,,,,
1638094659.228648,35.000000,0.000000,4065.000000,4189.487305,4435.641113,4280.128418,4288.461426,4225.641113,4087.692383,4474.102539,4457.692383,4236.666504,4681.666504,4553.461426,4454.871582,4665.641113,0.000000,4.000000,98.000000,,,,0.000000,4.000000,4.000000,4.000000,4.000000,4.000000,2.000000,4.000000,0.000000,4.000000,4.000000,4.000000,4.000000,4.000000,4.000000,50.000000,,,,,,,,,,,,,,,,,,,,,,,,,,,,
1638094659.236357,36.000000,0.000000,4062.051270,4182.948730,4411.538574,4291.153809,4301.282227,4227.692383,4090.641113,4474.358887,4454.102539,4238.974121,4700.128418,4552.051270,4461.794922,4648.461426,0.000000,4.000000,98.000000,,,,0.000000,4.000000,4.000000,4.000000,4.000000,4.000000,2.000000,4.000000,0.000000,4.000000,4.000000,4.000000,4.000000,4.000000,4.000000,50.000000,,,,,,,,,,,,,,,,,9.000000,0.000000,0.250334,0.640503,-0.285156,0.667664,0.968868,-0.051764,0.019534,-44.514427,-3.264356,-24.491501
1638094659.244265,37.000000,0.000000,4080.769287,4207.692383,4400.000000,4294.102539,4327.307617,4233.077148,4112.692383,4474.358887,4458.974121,4245.384766,4720.128418,4568.846191,4474.358887,4647.948730,0.000000,4.000000,98.000000,,,,0.000000,4.000000,4.000000,4.000000,4.000000,4.000000,2.000000,4.000000,0.000000,4.000000,4.000000,4.000000,4.000000,4.000000,4.000000,50.000000,,,,,,,,,,,,,,,,,,,,,,,,,,,,
1638094659.252073,38.000000,0.000000,4077.307617,4197.179688,4372.436035,4267.307617,4306.025879,4223.974121,4105.512695,4473.974121,4447.436035,4223.333496,4700.000000,4561.025879,4453.846191,4647.692383,0.000000,4.000000,98.000000,,,,0.000000,4.000000,4.000000,4.000000,4.000000,4.000000,2.000000,4.000000,0.000000,4.000000,4.000000,4.000000,4.000000,4.000000,4.000000,50.000000,,,,,,,,,,,,,,,,,,,,,,,,,,,,
1638094659.259981,39.000000,0.000000,4079.487061,4187.179688,4361.025879,4282.307617,4296.025879,4220.384766,4102.692383,4475.384766,4443.589844,4233.205078,4689.871582,4562.692383,4451.410156,4670.128418,0.000000,4.000000,98.000000,,,,0.000000,4.000000,4.000000,4.000000,4.000000,4.000000,2.000000,4.000000,0.000000,4.000000,4.000000,4.000000,4.000000,4.000000,4.000000,50.000000,,,,,,,,,,,,,,,,,,,,,,,,,,,,
1638094659.267789,40.000000,0.000000,4115.128418,4216.410156,4383.205078,4317.436035,4347.948730,4234.102539,4131.025879,4475.384766,4462.179688,4277.692383,4717.051270,4591.794922,4488.461426,4721.666504,0.000000,4.000000,98.000000,,,,0.000000,4.000000,4.000000,4.000000,4.000000,4.000000,2.000000,4.000000,0.000000,4.000000,4.000000,4.000000,4.000000,4.000000,4.000000,50.000000,,,,,,,,,,,,,,,,,10.000000,0.000000,0.250251,0.640381,-0.285217,0.667786,0.970333,-0.050299,0.017580,-44.562984,-3.254587,-24.409018
1638094659.275598,41.000000,0.000000,4134.871582,4227.436035,4376.666504,4306.922852,4377.307617,4236.538574,4141.794922,4472.436035,4463.846191,4285.384766,4726.794922,4595.512695,4495.897461,4728.461426,0.000000,4.000000,98.000000,,,,0.000000,4.000000,4.000000,4.000000,4.000000,4.000000,2.000000,4.000000,0.000000,4.000000,4.000000,4.000000,4.000000,4.000000,4.000000,50.000000,,,,,,,,,,,,,,,,,,,,,,,,,,,,
1638094659.283306,42.000000,0.000000,4133.589844,4231.025879,4353.717773,4298.333496,4387.051270,4234.615234,4133.846191,4472.692383,4461.025879,4278.717773,4715.384766,4588.333496,4488.461426,4699.230957,0.000000,4.000000,98.000000,,,,0.000000,4.000000,4.000000,4.000000,4.000000,4.000000,2.000000,4.000000,0.000000,4.000000,4.000000,4.000000,4.000000,4.000000,4.000000,50.000000,,,,,,,,,,,,,,,,,,,,,,,,,,,,
1638094659.291214,43.000000,0.000000,4152.307617,4256.922852,4366.410156,4322.948730,4463.846191,4251.538574,4147.179688,4476.794922,4483.077148,4300.512695,4718.077148,4609.871582,4512.692383,4709.487305,0.000000,4.000000,98.000000,,,,0.000000,4.000000,4.000000,4.000000,4.000000,4.000000,2.000000,4.000000,0.000000,4.000000,4.000000,4.000000,4.000000,4.000000,4.000000,50.000000,,,,,,,,,,,,,,,,,,,,,,,,,,,,
1638094659.299022,44.000000,0.000000,4157.948730,4251.666504,4365.769043,4317.948730,4543.205078,4255.000000,4154.230957,4479.871582,4486.025879,4303.333496,4711.666504,4616.794922,4512.436035,4712.307617,0.000000,4.000000,98.000000,,,,0.000000,4.000000,4.000000,4.000000,4.000000,4.000000,2.000000,4.000000,0.000000,4.000000,4.000000,4.000000,4.000000,4.000000,4.000000,50.000000,,,,,,,,,,,,,,,,,11.000000,0.000000,0.250342,0.640137,-0.285400,0.667908,0.981077,-0.061531,0.006348,-44.506683,-3.379128,-24.468115
1638094659.306930,45.000000,0.000000,4143.461426,4233.205078,4340.384766,4302.820313,4561.794922,4244.871582,4142.051270,4481.282227,4476.282227,4275.128418,4696.538574,4601.538574,4488.589844,4683.589844,0.000000,4.000000,98.000000,,,,0.000000,4.000000,4.000000,4.000000,4.000000,4.000000,2.000000,4.000000,0.000000,4.000000,4.000000,4.000000,4.000000,4.000000,4.000000,50.000000,,,,,,,,,,,,,,,,,,,,,,,,,,,,
1638094659.314739,46.000000,0.000000,4164.487305,4256.666504,4351.025879,4319.743652,4573.461426,4254.871582,4152.563965,4482.307617,4502.948730,4290.000000,4714.487305,4616.025879,4512.820313,4691.282227,0.000000,4.000000,98.000000,,,,0.000000,4.000000,4.000000,4.000000,4.000000,4.000000,2.000000,4.000000,0.000000,4.000000,4.000000,4.000000,4.000000,4.000000,4.000000,50.000000,,,,,,,,,,,,,,,,,,,,,,,,,,,,
1638094659.322647,47.000000,0.000000,4191.538574,4278.717773,4366.025879,4335.256348,4585.384766,4268.717773,4176.282227,4481.282227,4530.256348,4337.948730,4738.589844,4636.794922,4549.102539,4711.794922,0.000000,4.000000,98.000000,,,,0.000000,4.000000,4.000000,4.000000,4.000000,4.000000,2.000000,4.000000,0.000000,4.000000,4.000000,4.000000,4.000000,4.000000,4.000000,50.000000,,,,,,,,,,,,,,,,,,,,,,,,,,,,
1638094659.330455,48.000000,0.000000,4180.256348,4268.846191,4347.436035,4329.871582,4574.487305,4267.179688,4175.769043,4482.051270,4530.641113,4350.384766,4731.794922,4628.205078,4544.102539,4698.077148,0.000000,4.000000,98.000000,,,,0.000000,4.000000,4.000000,4.000000,4.000000,4.000000,2.000000,4.000000,0.000000,4.000000,4.000000,4.000000,4.000000,4.000000,4.000000,50.000000,,,,,,,,,,,,,,,,,12.000000,0.000000,0.250328,0.640015,-0.285400,0.668030,0.970822,-0.055671,0.018069,-44.606018,-3.474549,-24.387970
1638094659.338363,49.000000,0.000000,4178.974121,4266.282227,4344.615234,4332.436035,4575.641113,4262.692383,4168.205078,4485.128418,4537.179688,4356.410156,4729.615234,4628.077148,4541.794922,4694.615234,0.000000,4.000000,98.000000,,,,0.000000,4.000000,4.000000,4.000000,4.000000,4.000000,2.000000,4.000000,0.000000,4.000000,4.000000,4.000000,4.000000,4.000000,4.000000,50.000000,,,,,,,,,,,,,,,,,,,,,,,,,,,,
1638094659.346171,50.000000,0.000000,4196.282227,4263.461426,4359.358887,4340.000000,4581.922852,4260.769043,4171.922852,4484.615234,4551.538574,4373.974121,4744.743652,4650.384766,4557.563965,4708.461426,0.000000,4.000000,98.000000,,,,0.000000,4.000000,4.000000,4.000000,4.000000,4.000000,2.000000,4.000000,0.000000,4.000000,4.000000,4.000000,4.000000,4.000000,4.000000,50.000000,,,,,,,,,,,,,,,,,,,,,,,,,,,,
1638094659.354079,51.000000,0.000000,4206.282227,4255.512695,4363.333496,4336.922852,4573.589844,4260.256348,4179.102539,4484.615234,4556.666504,4364.743652,4753.077148,4667.179688,4570.000000,4711.538574,0.000000,4.000000,98.000000,,,,0.000000,4.000000,4.000000,4.000000,4.000000,4.000000,2.000000,4.000000,0.000000,4.000000,4.000000,4.000000,4.000000,4.000000,4.000000,50.000000,,,,,,,,,,,,,,,,,,,,,,,,,,,,
1638094659.361888,52.000000,0.000000,4212.692383,4261.666504,4358.846191,4332.307617,4565.769043,4264.743652,4175.769043,4487.436035,4550.641113,4340.512695,4747.436035,4662.179688,4567.307617,4707.948730,0.000000,4.000000,98.000000,,,,0.000000,4.000000,4.000000,4.000000,4.000000,4.000000,2.000000,4.000000,0.000000,4.000000,4.000000,4.000000,4.000000,4.000000,4.000000,50.000000,,,,,,,,,,,,,,,,,13.000000,0.000000,0.250398,0.640015,-0.285339,0.668030,0.979123,-0.041997,0.011720,-44.595413,-3.493761,-24.382507
1638094659.369596,53.000000,0.000000,4208.589844,4255.769043,4338.974121,4323.974121,4555.769043,4260.897461,4152.563965,4487.051270,4537.820313,4340.641113,4728.077148,4637.179688,4542.051270,4688.333496,0.000000,4.000000,98.000000,,,,0.000000,4.000000,4.000000,4.000000,4.000000,4.000000,2.000000,4.000000,0.000000,4.000000,4.000000,4.000000,4.000000,4.000000,4.000000,50.000000,,,,,,,,,,,,,,,,,,,,,,,,,,,,
1638094659.377404,54.000000,0.000000,4225.384766,4229.230957,4313.461426,4316.025879,4548.333496,4247.692383,4130.256348,4483.589844,4538.461426,4340.128418,4711.922852,4613.846191,4525.384766,4665.000000,0.000000,4.000000,98.000000,,,,0.000000,4.000000,4.000000,4.000000,4.000000,4.000000,2.000000,4.000000,0.000000,4.000000,4.000000,4.000000,4.000000,4.000000,4.000000,50.000000,,,,,,,,,,,,,,,,,,,,,,,,,,,,
1638094659.385112,55.000000,0.000000,4295.897461,4222.051270,4310.769043,4320.000000,4552.563965,4249.871582,4134.102539,4482.563965,4548.717773,4318.974121,4707.820313,4613.846191,4531.153809,4666.666504,0.000000,4.000000,98.000000,,,,0.000000,4.000000,4.000000,4.000000,4.000000,4.000000,2.000000,4.000000,0.000000,4.000000,4.000000,4.000000,4.000000,4.000000,4.000000,50.000000,,,,,,,,,,,,,,,,,,,,,,,,,,,,
1638094659.392921,56.000000,0.000000,4377.948730,4258.846191,4334.487305,4335.256348,4571.153809,4270.256348,4159.743652,4484.487305,4554.487305,4334.230957,4716.666504,4641.282227,4542.051270,4687.563965,0.000000,4.000000,98.000000,,,,0.000000,4.000000,4.000000,4.000000,4.000000,4.000000,2.000000,4.000000,0.000000,4.000000,4.000000,4.000000,4.000000,4.000000,4.000000,50.000000,,,,,,,,,,,,,,,,,14.000000,0.000000,0.250402,0.640076,-0.284912,0.668152,0.966915,-0.064949,0.013674,-44.602539,-3.611051,-24.427589
1638094659.400629,57.000000,0.000000,4411.922852,4276.282227,4343.717773,4335.641113,4571.666504,4277.436035,4173.846191,4487.179688,4555.769043,4357.692383,4719.743652,4653.974121,4536.282227,4686.153809,0.000000,4.000000,98.000000,,,,0.000000,4.000000,4.000000,4.000000,4.000000,4.000000,2.000000,4.000000,0.000000,4.000000,4.000000,4.000000,4.000000,4.000000,4.000000,50.000000,,,,,,,,,,,,,,,,,,,,,,,,,,,,
1638094659.408437,58.000000,0.000000,4404.871582,4243.077148,4317.179688,4321.282227,4541.794922,4263.461426,4166.538574,4488.589844,4549.743652,4329.102539,4709.230957,4629.102539,4519.358887,4657.820313,0.000000,4.000000,98.000000,,,,0.000000,4.000000,4.000000,4.000000,4.000000,4.000000,2.000000,4.000000,0.000000,4.000000,4.000000,4.000000,4.000000,4.000000,4.000000,50.000000,,,,,,,,,,,,,,,,,,,,,,,,,,,,
1638094659.416145,59.000000,0.000000,4389.871582,4230.769043,4299.230957,4323.205078,4526.794922,4260.256348,4164.102539,4488.589844,4554.102539,4311.538574,4711.666504,4617.563965,4522.051270,4652.307617,0.000000,4.000000,98.000000,,,,0.000000,4.000000,4.000000,4.000000,4.000000,4.000000,2.000000,4.000000,0.000000,4.000000,4.000000,4.000000,4.000000,4.000000,4.000000,50.000000,,,,,,,,,,,,,,,,,,,,,,,,,,,,
1638094659.423954,60.000000,0.000000,4370.128418,4244.487305,4316.282227,4328.589844,4533.333496,4265.897461,4169.487305,4490.128418,4576.922852,4337.307617,4723.974121,4638.846191,4540.384766,4668.717773,0.000000,4.000000,98.000000,,,,0.000000,4.000000,4.000000,4.000000,4.000000,4.000000,2.000000,4.000000,0.000000,4.000000,4.000000,4.000000,4.000000,4.000000,4.000000,50.000000,,,,,,,,,,,,,,,,,15.000000,0.000000,0.250423,0.639648,-0.284851,0.668579,0.995727,-0.064949,0.018557,-44.642284,-3.649946,-24.518164
1638094659.431662,61.000000,0.000000,4336.922852,4230.512695,4321.153809,4316.538574,4533.333496,4254.487305,4159.102539,4488.846191,4581.025879,4332.436035,4715.897461,4640.769043,4539.615234,4656.666504,0.000000,4.000000,98.000000,,,,0.000000,4.000000,4.000000,4.000000,4.000000,4.000000,2.000000,4.000000,0.000000,4.000000,4.000000,4.000000,4.000000,4.000000,4.000000,50.000000,,,,,,,,,,,,,,,,,,,,,,,,,,,,
1638094659.439470,62.000000,0.000000,4316.153809,4228.077148,4310.641113,4320.384766,4529.743652,4245.128418,4145.384766,4485.769043,4565.000000,4302.820313,4709.487305,4630.000000,4528.205078,4641.922852,0.000000,4.000000,98.000000,,,,0.000000,4.000000,4.000000,4.000000,4.000000,4.000000,2.000000,4.000000,0.000000,4.000000,4.000000,4.000000,4.000000,4.000000,4.000000,50.000000,,,,,,,,,,,,,,,,,,,,,,,,,,,,
1638094659.447178,63.000000,0.000000,4332.563965,4268.461426,4329.743652,4336.666504,4533.205078,4260.000000,4153.717773,4488.846191,4574.230957,4319.358887,4734.487305,4655.897461,4538.717773,4668.974121,0.000000,4.000000,98.000000,,,,0.000000,4.000000,4.000000,4.000000,4.000000,4.000000,2.000000,4.000000,0.000000,4.000000,4.000000,4.000000,4.000000,4.000000,4.000000,50.000000,,,,,,,,,,,,,,,,,,,,,,,,,,,,
1638094659.454987,64.000000,0.000000,4338.974121,4281.282227,4348.333496,4327.563965,4523.717773,4268.846191,4162.051270,4490.897461,4594.358887,4352.820313,4753.461426,4680.256348,4551.538574,4691.922852,2658.000000,4.000000,98.000000,,,,0.000000,4.000000,4.000000,4.000000,4.000000,4.000000,2.000000,4.000000,0.000000,4.000000,4.000000,4.000000,4.000000,4.000000,4.000000,50.000000,,,,,,,,,,,,,,,,,16.000000,0.000000,0.250133,0.639343,-0.285217,0.668823,0.984495,-0.073251,0.014650,-44.711391,-3.584951,-24.533014
1638094659.462695,65.000000,0.000000,4298.974121,4249.358887,4315.000000,4317.179688,4503.077148,4255.000000,4142.307617,4485.256348,4587.179688,4343.461426,4730.384766,4651.794922,4530.256348,4667.948730,1688.000000,4.000000,98.000000,,,,0.000000,4.000000,4.000000,4.000000,4.000000,4.000000,2.000000,4.000000,0.000000,4.000000,4.000000,4.000000,4.000000,4.000000,4.000000,50.000000,,,,,,,,,,,,,,,,,,,,,,,,,,,,
1638094659.470503,66.000000,0.000000,4262.692383,4235.384766,4279.358887,4329.230957,4498.974121,4243.461426,4118.461426,4481.666504,4582.692383,4317.820313,4707.948730,4616.922852,4500.641113,4636.153809,2628.000000,4.000000,98.000000,,,,0.000000,4.000000,4.000000,4.000000,4.000000,4.000000,2.000000,4.000000,0.000000,4.000000,4.000000,4.000000,4.000000,4.000000,4.000000,50.000000,,,,,,,,,,,,,,,,,,,,,,,,,,,,
1638094659.478211,67.000000,0.000000,4261.153809,4246.025879,4286.538574,4329.871582,4503.205078,4247.820313,4117.563965,4488.717773,4591.153809,4306.153809,4716.025879,4617.820313,4497.436035,4630.000000,2573.000000,4.000000,98.000000,,,,0.000000,4.000000,4.000000,4.000000,4.000000,4.000000,2.000000,4.000000,0.000000,4.000000,4.000000,4.000000,4.000000,4.000000,4.000000,50.000000,,,,,,,,,,,,,,,,,,,,,,,,,,,,
1638094659.486020,68.000000,0.000000,4254.230957,4246.538574,4286.025879,4319.358887,4495.256348,4256.794922,4130.384766,4493.205078,4582.307617,4298.205078,4721.410156,4618.589844,4503.077148,4629.102539,2311.000000,4.000000,98.000000,,,,0.000000,4.000000,4.000000,4.000000,4.000000,4.000000,2.000000,4.000000,0.000000,4.000000,4.000000,4.000000,4.000000,4.000000,4.000000,50.000000,,,,,,,,,,,,,,,,,17.000000,0.000000,0.250171,0.638855,-0.285706,0.669067,0.984007,-0.063973,0.019534,-44.790253,-3.576456,-24.563046
1638094659.493728,69.000000,0.000000,4227.179688,4228.589844,4256.666504,4315.897461,4478.846191,4255.769043,4133.717773,4487.051270,4564.358887,4290.384766,4708.589844,4601.794922,4491.025879,4615.641113,1107.000000,4.000000,98.000000,,,,0.000000,4.000000,4.000000,4.000000,4.000000,4.000000,2.000000,4.000000,0.000000,4.000000,4.000000,4.000000,4.000000,4.000000,4.000000,50.000000,,,,,,,,,,,,,,,,,,,,,,,,,,,,
1638094659.501636,70.000000,0.000000,4225.000000,4234.230957,4259.230957,4313.077148,4485.512695,4248.333496,4134.487305,4485.769043,4570.128418,4292.948730,4707.948730,4603.077148,4486.922852,4614.615234,2366.000000,4.000000,98.000000,,,,0.000000,4.000000,4.000000,4.000000,4.000000,4.000000,2.000000,4.000000,0.000000,4.000000,4.000000,4.000000,4.000000,4.000000,4.000000,50.000000,,,,,,,,,,,,,,,,,,,,,,,,,,,,
1638094659.509444,71.000000,0.000000,4245.384766,4259.871582,4291.410156,4318.974121,4499.102539,4246.153809,4146.666504,4491.410156,4579.615234,4302.307617,4717.692383,4620.769043,4501.666504,4629.871582,0.000000,4.000000,98.000000,,,,0.000000,4.000000,4.000000,4.000000,4.000000,4.000000,2.000000,4.000000,0.000000,4.000000,4.000000,4.000000,4.000000,4.000000,4.000000,50.000000,,,,,,,,,,,,,,,,,,,,,,,,,,,,
1638094659.517352,72.000000,0.000000,4246.538574,4258.461426,4296.538574,4323.333496,4488.846191,4250.641113,4159.358887,4490.769043,4568.974121,4311.922852,4721.153809,4625.000000,4510.256348,4632.436035,1200.000000,4.000000,98.000000,,,,0.000000,4.000000,4.000000,4.000000,4.000000,4.000000,2.000000,4.000000,0.000000,4.000000,4.000000,4.000000,4.000000,4.000000,4.000000,50.000000,,,,,,,,,,,,,,,,,18.000000,0.000000,0.250291,0.638489,-0.286133,0.669189,0.980588,-0.064949,0.011232,-44.677895,-3.585477,-24.606741
1638094659.525161,73.000000,0.000000,4236.794922,4250.000000,4286.666504,4313.589844,4479.358887,4255.512695,4156.794922,4487.307617,4562.051270,4316.410156,4716.282227,4620.128418,4508.846191,4624.102539,3029.000000,4.000000,98.000000,,,,0.000000,4.000000,4.000000,4.000000,4.000000,4.000000,2.000000,4.000000,0.000000,4.000000,4.000000,4.000000,4.000000,4.000000,4.000000,50.000000,,,,,,,,,,,,,,,,,,,,,,,,,,,,
1638094659.533069,74.000000,0.000000,4227.307617,4250.641113,4275.384766,4310.256348,4471.538574,4251.794922,4137.179688,4487.051270,4554.358887,4289.615234,4694.743652,4605.256348,4489.487305,4607.692383,2538.000000,4.000000,98.000000,,,,0.000000,4.000000,4.000000,4.000000,4.000000,4.000000,2.000000,4.000000,0.000000,4.000000,4.000000,4.000000,4.000000,4.000000,4.000000,50.000000,,,,,,,,,,,,,,,,,,,,,,,,,,,,
1638094659.540877,75.000000,0.000000,4216.922852,4241.025879,4263.205078,4315.256348,4456.153809,4246.282227,4129.487305,4486.794922,4539.230957,4258.717773,4681.794922,4587.563965,4468.461426,4594.615234,2638.000000,4.000000,98.000000,,,,0.000000,4.000000,4.000000,4.000000,4.000000,4.000000,2.000000,4.000000,0.000000,4.000000,4.000000,4.000000,4.000000,4.000000,4.000000,50.000000,,,,,,,,,,,,,,,,,,,,,,,,,,,,
1638094659.548785,76.000000,0.000000,4217.820313,4237.179688,4271.025879,4315.256348,4454.615234,4248.846191,4138.846191,4487.179688,4542.307617,4270.256348,4690.000000,4595.384766,4479.102539,4606.025879,2074.000000,4.000000,98.000000,,,,0.000000,4.000000,4.000000,4.000000,4.000000,4.000000,2.000000,4.000000,0.000000,4.000000,4.000000,4.000000,4.000000,4.000000,4.000000,50.000000,,,,,,,,,,,,,,,,,19.000000,0.000000,0.250307,0.638428,-0.286255,0.669189,0.977170,-0.049811,0.027347,-44.493439,-3.526930,-24.579401
1638094659.556593,77.000000,0.000000,4234.487305,4260.128418,4286.538574,4325.384766,4476.153809,4251.025879,4132.820313,4487.051270,4557.051270,4294.615234,4690.128418,4612.051270,4491.153809,4617.436035,2486.000000,4.000000,98.000000,,,,0.000000,4.000000,4.000000,4.000000,4.000000,4.000000,2.000000,4.000000,0.000000,4.000000,4.000000,4.000000,4.000000,4.000000,4.000000,50.000000,,,,,,,,,,,,,,,,,,,,,,,,,,,,
1638094659.564501,78.000000,0.000000,4248.077148,4267.307617,4278.333496,4331.794922,4480.128418,4244.743652,4106.922852,4483.333496,4558.589844,4281.538574,4687.692383,4601.794922,4474.871582,4600.641113,2538.000000,4.000000,98.000000,,,,0.000000,4.000000,4.000000,4.000000,4.000000,4.000000,2.000000,4.000000,0.000000,4.000000,4.000000,4.000000,4.000000,4.000000,4.000000,50.000000,,,,,,,,,,,,,,,,,,,,,,,,,,,,
1638094659.572310,79.000000,0.000000,4249.230957,4246.538574,4268.333496,4314.358887,4453.333496,4238.974121,4094.358887,4483.077148,4563.974121,4259.102539,4697.820313,4590.384766,4470.641113,4591.282227,2638.000000,4.000000,98.000000,,,,0.000000,4.000000,4.000000,4.000000,4.000000,4.000000,2.000000,4.000000,0.000000,4.000000,4.000000,4.000000,4.000000,4.000000,4.000000,50.000000,,,,,,,,,,,,,,,,,,,,,,,,,,,,
1638094659.580018,80.000000,0.000000,4256.666504,4255.384766,4289.871582,4317.179688,4445.128418,4247.307617,4116.794922,4487.692383,4587.692383,4281.538574,4708.461426,4611.666504,4497.179688,4619.358887,2074.000000,4.000000,98.000000,,,,0.000000,4.000000,4.000000,4.000000,4.000000,4.000000,2.000000,4.000000,0.000000,4.000000,4.000000,4.000000,4.000000,4.000000,4.000000,50.000000,,,,,,,,,,,,,,,,,20.000000,0.000000,0.250394,0.638184,-0.286438,0.669312,0.973752,-0.057136,0.023929,-44.594093,-3.574237,-24.571461
1638094659.587826,81.000000,0.000000,4262.436035,4278.846191,4305.897461,4336.538574,4455.384766,4257.563965,4140.000000,4488.974121,4595.769043,4300.512695,4706.282227,4627.820313,4506.282227,4630.769043,2486.000000,4.000000,98.000000,,,,0.000000,4.000000,4.000000,4.000000,4.000000,4.000000,2.000000,4.000000,0.000000,4.000000,4.000000,4.000000,4.000000,4.000000,4.000000,50.000000,,,,,,,,,,,,,,,,,,,,,,,,,,,,
1638094659.595534,82.000000,0.000000,4255.256348,4269.358887,4292.948730,4321.666504,4457.436035,4255.512695,4142.307617,4490.641113,4586.922852,4281.538574,4696.666504,4614.615234,4491.282227,4607.692383,2538.000000,4.000000,98.000000,,,,0.000000,4.000000,4.000000,4.000000,4.000000,4.000000,2.000000,4.000000,0.000000,4.000000,4.000000,4.000000,4.000000,4.000000,4.000000,50.000000,,,,,,,,,,,,,,,,,,,,,,,,,,,,
1638094659.603343,83.000000,0.000000,4261.794922,4249.102539,4276.922852,4299.615234,4450.897461,4247.692383,4139.102539,4495.128418,4586.410156,4274.487305,4686.922852,4601.025879,4480.641113,4596.794922,2638.000000,4.000000,98.000000,,,,0.000000,4.000000,4.000000,4.000000,4.000000,4.000000,2.000000,4.000000,0.000000,4.000000,4.000000,4.000000,4.000000,4.000000,4.000000,50.000000,,,,,,,,,,,,,,,,,,,,,,,,,,,,
1638094659.611051,84.000000,0.000000,4298.077148,4250.512695,4269.615234,4306.538574,4442.692383,4247.436035,4139.487305,4496.410156,4594.102539,4279.102539,4688.077148,4598.077148,4476.538574,4602.563965,2074.000000,4.000000,98.000000,,,,0.000000,4.000000,4.000000,4.000000,4.000000,4.000000,2.000000,4.000000,0.000000,4.000000,4.000000,4.000000,4.000000,4.000000,4.000000,50.000000,,,,,,,,,,,,,,,,,21.000000,0.000000,0.250518,0.638062,-0.286316,0.669434,0.980100,-0.074716,0.016604,-44.634686,-3.483480,-24.397648
1638094659.618859,85.000000,0.000000,4343.205078,4262.692383,4264.615234,4323.205078,4443.333496,4251.282227,4133.717773,4493.333496,4595.128418,4268.077148,4691.538574,4590.641113,4475.897461,4595.897461,2486.000000,4.000000,98.000000,,,,0.000000,4.000000,4.000000,4.000000,4.000000,4.000000,2.000000,4.000000,0.000000,4.000000,4.000000,4.000000,4.000000,4.000000,4.000000,50.000000,,,,,,,,,,,,,,,,,,,,,,,,,,,,
1638094659.626567,86.000000,0.000000,4392.563965,4265.512695,4263.589844,4324.230957,4448.461426,4246.538574,4117.820313,4491.410156,4585.000000,4269.743652,4682.307617,4582.051270,4476.282227,4584.871582,2538.000000,4.000000,98.000000,,,,0.000000,4.000000,4.000000,4.000000,4.000000,4.000000,2.000000,4.000000,0.000000,4.000000,4.000000,4.000000,4.000000,4.000000,4.000000,50.000000,,,,,,,,,,,,,,,,,,,,,,,,,,,,
1638094659.634376,87.000000,0.000000,4434.615234,4253.461426,4267.179688,4306.538574,4431.153809,4242.051270,4105.769043,4492.563965,4575.769043,4278.846191,4674.487305,4582.820313,4473.974121,4585.256348,2638.000000,4.000000,98.000000,,,,0.000000,4.000000,4.000000,4.000000,4.000000,4.000000,2.000000,4.000000,0.000000,4.000000,4.000000,4.000000,4.000000,4.000000,4.000000,50.000000,,,,,,,,,,,,,,,,,,,,,,,,,,,,
1638094659.642084,88.000000,0.000000,4428.205078,4234.743652,4261.410156,4288.333496,4402.563965,4245.000000,4100.769043,4492.051270,4576.282227,4263.461426,4673.461426,4583.589844,4471.666504,4584.102539,2074.000000,4.000000,98.000000,,,,0.000000,4.000000,4.000000,4.000000,4.000000,4.000000,2.000000,4.000000,0.000000,4.000000,4.000000,4.000000,4.000000,4.000000,4.000000,50.000000,,,,,,,,,,,,,,,,,22.000000,0.000000,0.250580,0.638000,-0.286255,0.669495,0.976193,-0.060066,0.021487,-44.471214,-3.401798,-24.407883
